Time  1 - default sample rate [s]	WIV_Voltage [mV/V]	WIV_Current [mV/V]	WIV_Poten [V]	WIV_dynamometer [mV/V]
0	0.000	0.000	-0.00048	0.04080	
0.00500	0.000	0.000	-0.00046	0.04080	
0.01000	0.000	0.000	-0.00048	0.04080	
0.01500	0.000	0.000	-0.00049	0.04080	
0.02000	0.000	0.000	-0.00046	0.04080	
0.02500	0.000	0.000	-0.00047	0.04080	
0.03000	0.000	0.000	-0.00050	0.04080	
0.03500	0.000	0.000	-0.00048	0.04080	
0.04000	0.000	0.000	-0.00048	0.04080	
0.04500	0.000	0.000	-0.00052	0.04080	
0.05000	0.000	0.000	-0.00052	0.04080	
0.05500	0.000	0.000	-0.00050	0.04080	
0.06000	0.000	0.000	-0.00054	0.04080	
0.06500	0.000	0.000	-0.00055	0.04081	
0.07000	0.000	0.000	-0.00053	0.04081	
0.07500	0.000	0.000	-0.00055	0.04081	
0.08000	0.000	0.000	-0.00058	0.04081	
0.08500	0.000	0.000	-0.00055	0.04081	
0.09000	0.000	0.000	-0.00055	0.04080	
0.09500	0.000	0.000	-0.00058	0.04080	
0.1000	0.000	0.000	-0.00057	0.04080	
0.1050	0.000	0.000	-0.00054	0.04080	
0.1100	0.000	0.000	-0.00057	0.04080	
0.1150	0.000	0.000	-0.00058	0.04080	
0.1200	0.000	0.000	-0.00054	0.04080	
0.1250	0.000	0.000	-0.00055	0.04080	
0.1300	0.000	0.000	-0.00058	0.04079	
0.1350	0.000	0.000	-0.00055	0.04079	
0.1400	0.000	0.000	-0.00054	0.04079	
0.1450	0.000	0.000	-0.00057	0.04080	
0.1500	0.000	0.000	-0.00056	0.04080	
0.1550	0.000	0.000	-0.00053	0.04080	
0.1600	0.000	0.000	-0.00056	0.04080	
0.1650	0.000	0.000	-0.00057	0.04081	
0.1700	0.000	0.000	-0.00054	0.04081	
0.1750	0.000	0.000	-0.00055	0.04081	
0.1800	0.000	0.000	-0.00058	0.04081	
0.1850	0.000	0.000	-0.00056	0.04081	
0.1900	0.000	0.000	-0.00055	0.04081	
0.1950	0.000	0.000	-0.00059	0.04081	
0.2000	0.000	0.000	-0.00058	0.04081	
0.2050	0.000	0.000	-0.00055	0.04081	
0.2100	0.000	0.000	-0.00058	0.04081	
0.2150	0.000	0.000	-0.00059	0.04081	
0.2200	0.000	0.000	-0.00055	0.04081	
0.2250	0.000	0.000	-0.00056	0.04081	
0.2300	0.000	0.000	-0.00059	0.04081	
0.2350	0.000	0.000	-0.00056	0.04081	
0.2400	0.000	0.000	-0.00055	0.04081	
0.2450	0.000	0.000	-0.00058	0.04081	
0.2500	0.000	0.000	-0.00057	0.04081	
0.2550	0.000	0	-0.00054	0.04081	
0.2600	0.000	0.000	-0.00057	0.04080	
0.2650	0.000	0.000	-0.00058	0.04080	
0.2700	0.000	0.000	-0.00054	0.04080	
0.2750	0.000	0.000	-0.00055	0.04080	
0.2800	0.000	0.000	-0.00058	0.04080	
0.2850	0.000	0.000	-0.00055	0.04080	
0.2900	0.000	0.000	-0.00054	0.04080	
0.2950	0.000	0.000	-0.00058	0.04080	
0.3000	0.000	0.000	-0.00057	0.04080	
0.3050	0.000	0.000	-0.00054	0.04080	
0.3100	0.000	0.000	-0.00057	0.04080	
0.3150	0.000	0.000	-0.00058	0.04080	
0.3200	0.000	0.000	-0.00054	0.04080	
0.3250	0.000	0.000	-0.00055	0.04080	
0.3300	0.000	0.000	-0.00058	0.04079	
0.3350	0.000	0.000	-0.00055	0.04079	
0.3400	0	0.000	-0.00054	0.04079	
0.3450	0	0.000	-0.00058	0.04079	
0.3500	0	0.000	-0.00056	0.04079	
0.3550	0	0.000	-0.00054	0.04078	
0.3600	0.000	0.000	-0.00056	0.04078	
0.3650	0.000	0.000	-0.00057	0.04078	
0.3700	0.000	0.000	-0.00054	0.04078	
0.3750	0.000	0.000	-0.00055	0.04078	
0.3800	0.000	0.000	-0.00058	0.04077	
0.3850	0.000	0.000	-0.00056	0.04077	
0.3900	0.000	0.000	-0.00055	0.04077	
0.3950	0.000	0.000	-0.00059	0.04077	
0.4000	0.000	0.000	-0.00058	0.04077	
0.4050	0.000	0.000	-0.00056	0.04077	
0.4100	0.000	0.000	-0.00059	0.04077	
0.4150	0.000	0.000	-0.00059	0.04077	
0.4200	0.000	0.000	-0.00057	0.04077	
0.4250	0.000	0.000	-0.00058	0.04077	
0.4300	0.000	0.000	-0.00060	0.04077	
0.4350	0.000	0.000	-0.00058	0.04077	
0.4400	0.000	0.000	-0.00057	0.04077	
0.4450	0.000	0.000	-0.00060	0.04077	
0.4500	0.000	0.000	-0.00059	0.04077	
0.4550	0.000	0.000	-0.00057	0.04078	
0.4600	0.000	0.000	-0.00059	0.04078	
0.4650	0.000	-0.00013	-0.00060	0.04078	
0.4700	0.000	-0.00014	-0.00057	0.04078	
0.4750	0.000	-0.00013	-0.00058	0.04079	
0.4800	0.000	-0.00015	-0.00060	0.04079	
0.4850	0.000	-0.00016	-0.00057	0.04079	
0.4900	0.000	-0.00015	-0.00056	0.04079	
0.4950	0.000	-0.00016	-0.00059	0.04079	
0.5000	0.000	-0.00019	-0.00058	0.04080	
0.5050	0.000	-0.00018	-0.00055	0.04080	
0.5100	0.000	-0.00017	-0.00058	0.04080	
0.5150	0.000	-0.00019	-0.00059	0.04080	
0.5200	0.000	-0.00019	-0.00056	0.04080	
0.5250	0.000	-0.00017	-0.00057	0.04080	
0.5300	0.000	-0.00018	-0.00060	0.04080	
0.5350	0.000	-0.00018	-0.00057	0.04080	
0.5400	0.000	-0.00016	-0.00057	0.04080	
0.5450	0.000	-0.00016	-0.00060	0.04080	
0.5500	0.000	-0.00018	-0.00059	0.04080	
0.5550	0.000	-0.00017	-0.00056	0.04080	
0.5600	0.000	-0.00016	-0.00058	0.04080	
0.5650	0.000	-0.00018	-0.00059	0.04080	
0.5700	0.000	-0.00018	-0.00056	0.04080	
0.5750	0.000	-0.00016	-0.00057	0.04080	
0.5800	0.000	-0.00017	-0.00059	0.04080	
0.5850	0.000	-0.00018	-0.00056	0.04080	
0.5900	0.000	-0.00016	-0.00055	0.04079	
0.5950	0.000	-0.00016	-0.00058	0.04079	
0.6000	0.000	-0.00018	-0.00057	0.04079	
0.6050	0.000	-0.00016	-0.00055	0.04079	
0.6100	0.000	-0.00015	-0.00057	0.04079	
0.6150	0.000	-0.00017	-0.00058	0.04079	
0.6200	0.000	-0.00017	-0.00055	0.04079	
0.6250	0.000	-0.00015	-0.00056	0.04079	
0.6300	0.000	-0.00016	-0.00059	0.04079	
0.6350	0.000	-0.00017	-0.00056	0.04079	
0.6400	0.000	-0.00015	-0.00055	0.04079	
0.6450	0.000	-0.00015	-0.00058	0.04079	
0.6500	0.000	-0.00016	-0.00057	0.04079	
0.6550	0.000	-0.00015	-0.00055	0.04079	
0.6600	0.000	-0.00014	-0.00057	0.04079	
0.6650	0.000	-0.00015	-0.00058	0.04079	
0.6700	0.000	-0.00015	-0.00055	0.04079	
0.6750	0.000	-0.00013	-0.00055	0.04079	
0.6800	0.000	-0.00014	-0.00058	0.04079	
0.6850	0.000	-0.00015	-0.00055	0.04079	
0.6900	0.000	-0.00013	-0.00054	0.04079	
0.6950	0.000	-0.00013	-0.00057	0.04079	
0.7000	0.000	-0.00015	-0.00055	0.04079	
0.7050	0.000	-0.00013	-0.00053	0.04079	
0.7100	0.000	-0.00012	-0.00055	0.04079	
0.7150	0.000	-0.00014	-0.00057	0.04079	
0.7200	0.000	-0.00014	-0.00054	0.04078	
0.7250	0.000	-0.00012	-0.00055	0.04078	
0.7300	0.000	-0.00013	-0.00058	0.04079	
0.7350	0.000	-0.00014	-0.00056	0.04079	
0.7400	0.000	-0.00012	-0.00055	0.04079	
0.7450	0.000	-0.00012	-0.00059	0.04079	
0.7500	0.000	-0.00014	-0.00058	0.04079	
0.7550	0.000	-0.00012	-0.00056	0.04079	
0.7600	0.000	-0.00011	-0.00059	0.04079	
0.7650	0.000	-0.00012	-0.00060	0.04079	
0.7700	0.000	-0.00012	-0.00057	0.04079	
0.7750	0.000	-0.00010	-0.00059	0.04079	
0.7800	0.000	-0.00011	-0.00061	0.04079	
0.7850	0.000	-0.00012	-0.00059	0.04079	
0.7900	0.000	-0.00010	-0.00058	0.04079	
0.7950	0.000	-0.00010	-0.00061	0.04079	
0.8000	0.000	-0.00012	-0.00060	0.04079	
0.8050	0.000	-0.00010	-0.00057	0.04080	
0.8100	0.000	0.000	-0.00059	0.04080	
0.8150	0.000	-0.00010	-0.00059	0.04080	
0.8200	0.000	-0.00010	-0.00056	0.04080	
0.8250	0	0.000	-0.00057	0.04080	
0.8300	0	0.000	-0.00059	0.04080	
0.8350	0.000	-0.00011	-0.00056	0.04080	
0.8400	0.000	0.000	-0.00055	0.04080	
0.8450	0.000	0.000	-0.00058	0.04080	
0.8500	0.000	-0.00011	-0.00057	0.04080	
0.8550	0.000	-0.00010	-0.00054	0.04080	
0.8600	0.000	0.000	-0.00057	0.04080	
0.8650	0.000	-0.00011	-0.00058	0.04080	
0.8700	0.000	-0.00011	-0.00055	0.04080	
0.8750	0.000	0.000	-0.00056	0.04080	
0.8800	0.000	-0.00011	-0.00059	0.04080	
0.8850	0.000	-0.00012	-0.00057	0.04080	
0.8900	0.000	-0.00010	-0.00056	0.04080	
0.8950	0.000	-0.00010	-0.00059	0.04080	
0.9000	0.000	-0.00012	-0.00058	0.04080	
0.9050	0.000	-0.00011	-0.00056	0.04080	
0.9100	0.000	0.000	-0.00059	0.04080	
0.9150	0.000	-0.00012	-0.00060	0.04080	
0.9200	0.000	-0.00011	-0.00057	0.04080	
0.9250	0.000	0.000	-0.00058	0.04080	
0.9300	0.000	-0.00011	-0.00060	0.04079	
0.9350	0.000	-0.00012	-0.00058	0.04079	
0.9400	0.000	0.000	-0.00057	0.04079	
0.9450	0.000	0.000	-0.00059	0.04079	
0.9500	0.000	-0.00011	-0.00059	0.04079	
0.9550	0.000	0.000	-0.00056	0.04079	
0.9600	0.000	0.000	-0.00058	0.04079	
0.9650	0.000	-0.00010	-0.00060	0.04079	
0.9700	0.000	-0.00010	-0.00057	0.04079	
0.9750	0	0.000	-0.00058	0.04079	
0.9800	0	0.000	-0.00061	0.04078	
0.9850	0	-0.00011	-0.00060	0.04078	
0.9900	0	0.000	-0.00060	0.04078	
0.9950	0	0.000	-0.00064	0.04078	
1.000	0	-0.00012	-0.00065	0.04078	
1.005	0	-0.00011	-0.00063	0.04077	
1.010	0	0.000	-0.00066	0.04077	
1.015	0	-0.00012	-0.00068	0.04077	
1.020	0	-0.00012	-0.00065	0.04077	
1.025	0.000	0.000	-0.00066	0.04077	
1.030	0.000	-0.00011	-0.00069	0.04077	
1.035	0.000	-0.00012	-0.00067	0.04077	
1.040	0.000	0.000	-0.00065	0.04077	
1.045	0	0.000	-0.00068	0.04077	
1.050	0	-0.00011	-0.00067	0.04077	
1.055	0	0.000	-0.00064	0.04077	
1.060	0	0.000	-0.00066	0.04077	
1.065	0	-0.00011	-0.00067	0.04078	
1.070	0	-0.00011	-0.00064	0.04078	
1.075	0	0.000	-0.00064	0.04078	
1.080	0	-0.00010	-0.00066	0.04078	
1.085	0	-0.00011	-0.00064	0.04078	
1.090	0	0.000	-0.00062	0.04078	
1.095	0	0.000	-0.00066	0.04078	
1.100	0	-0.00011	-0.00066	0.04079	
1.105	0	-0.00010	-0.00065	0.04079	
1.110	0	0.000	-0.00070	0.04079	
1.115	0	-0.00012	-0.00073	0.04079	
1.120	0	-0.00012	-0.00072	0.04079	
1.125	0	-0.00011	-0.00075	0.04079	
1.130	0.000	-0.00012	-0.00079	0.04080	
1.135	0.000	-0.00013	-0.00079	0.04080	
1.140	0.000	-0.00011	-0.00079	0.04080	
1.145	0.000	-0.00011	-0.00084	0.04080	
1.150	0.000	-0.00012	-0.00084	0.04080	
1.155	0.000	-0.00011	-0.00082	0.04080	
1.160	0.000	0.000	-0.00085	0.04080	
1.165	0.000	-0.00010	-0.00087	0.04080	
1.170	0.000	-0.00010	-0.00084	0.04080	
1.175	0.000	0.000	-0.00084	0.04079	
1.180	0.000	0.000	-0.00087	0.04079	
1.185	0.000	0.000	-0.00084	0.04079	
1.190	0.000	0.000	-0.00082	0.04079	
1.195	0.000	0.000	-0.00084	0.04079	
1.200	0.000	0.000	-0.00083	0.04079	
1.205	0.000	0.000	-0.00079	0.04079	
1.210	0.000	0.000	-0.00080	0.04079	
1.215	0.000	0.000	-0.00081	0.04079	
1.220	0.000	0.000	-0.00077	0.04079	
1.225	0.000	0.000	-0.00077	0.04079	
1.230	0.000	0.000	-0.00079	0.04079	
1.235	0.000	-0.00010	-0.00076	0.04079	
1.240	0.000	0.000	-0.00074	0.04080	
1.245	0.000	0.000	-0.00077	0.04080	
1.250	0.000	0.000	-0.00076	0.04080	
1.255	0.000	0.000	-0.00073	0.04080	
1.260	0.000	0.000	-0.00075	0.04080	
1.265	0.000	0.000	-0.00076	0.04080	
1.270	0.000	0.000	-0.00072	0.04080	
1.275	0.000	0.000	-0.00073	0.04080	
1.280	0.000	0.000	-0.00076	0.04080	
1.285	0.000	0.000	-0.00073	0.04081	
1.290	0.000	0.000	-0.00072	0.04081	
1.295	0.000	0.000	-0.00075	0.04081	
1.300	0.000	0.000	-0.00074	0.04080	
1.305	0.000	0.000	-0.00072	0.04080	
1.310	0.000	0.000	-0.00074	0.04080	
1.315	0	0.000	-0.00075	0.04080	
1.320	0	0.000	-0.00072	0.04080	
1.325	0	0.000	-0.00073	0.04080	
1.330	0	0.000	-0.00075	0.04080	
1.335	0	0.000	-0.00073	0.04080	
1.340	0	0.000	-0.00071	0.04080	
1.345	0	0.000	-0.00074	0.04080	
1.350	0	0.000	-0.00074	0.04080	
1.355	0	0.000	-0.00071	0.04080	
1.360	0	0.000	-0.00073	0.04080	
1.365	0.000	0.000	-0.00075	0.04080	
1.370	0.000	0.000	-0.00072	0.04080	
1.375	0.000	0.000	-0.00072	0.04080	
1.380	0.000	0.000	-0.00075	0.04080	
1.385	0.000	0.000	-0.00073	0.04080	
1.390	0	0.000	-0.00072	0.04080	
1.395	0	0.000	-0.00075	0.04080	
1.400	0	-0.00012	-0.00074	0.04080	
1.405	0	-0.00011	-0.00072	0.04080	
1.410	0	-0.00011	-0.00074	0.04080	
1.415	0	-0.00013	-0.00075	0.04080	
1.420	0	-0.00014	-0.00072	0.04080	
1.425	0	-0.00012	-0.00072	0.04080	
1.430	0	-0.00013	-0.00074	0.04080	
1.435	0	-0.00015	-0.00072	0.04080	
1.440	0	-0.00013	-0.00070	0.04080	
1.445	0	-0.00013	-0.00073	0.04080	
1.450	0	-0.00015	-0.00072	0.04080	
1.455	0	-0.00014	-0.00069	0.04080	
1.460	0	-0.00012	-0.00071	0.04080	
1.465	0	-0.00014	-0.00072	0.04080	
1.470	0	-0.00014	-0.00068	0.04080	
1.475	0	-0.00012	-0.00069	0.04080	
1.480	0	-0.00013	-0.00071	0.04080	
1.485	0	-0.00014	-0.00069	0.04080	
1.490	0	-0.00012	-0.00068	0.04080	
1.495	0	-0.00012	-0.00071	0.04081	
1.500	0	-0.00014	-0.00071	0.04081	
1.505	0	-0.00012	-0.00068	0.04081	
1.510	0.000	-0.00011	-0.00071	0.04081	
1.515	0.000	-0.00013	-0.00072	0.04080	
1.520	0.000	-0.00013	-0.00070	0.04080	
1.525	0.000	-0.00011	-0.00071	0.04080	
1.530	0.000	-0.00012	-0.00073	0.04080	
1.535	0.000	-0.00014	-0.00071	0.04080	
1.540	0.000	-0.00012	-0.00070	0.04080	
1.545	0.000	-0.00012	-0.00073	0.04080	
1.550	0.000	-0.00014	-0.00073	0.04080	
1.555	0.000	-0.00013	-0.00070	0.04080	
1.560	0.000	-0.00012	-0.00072	0.04080	
1.565	0.000	-0.00014	-0.00073	0.04080	
1.570	0	-0.00014	-0.00070	0.04080	
1.575	0	-0.00012	-0.00071	0.04080	
1.580	0	-0.00013	-0.00073	0.04080	
1.585	0	-0.00015	-0.00071	0.04080	
1.590	0.000	-0.00013	-0.00070	0.04080	
1.595	0.000	-0.00013	-0.00073	0.04080	
1.600	0.000	-0.00015	-0.00072	0.04080	
1.605	0.000	-0.00014	-0.00070	0.04080	
1.610	0.000	-0.00013	-0.00072	0.04080	
1.615	0.000	-0.00015	-0.00073	0.04080	
1.620	0.000	-0.00015	-0.00070	0.04079	
1.625	0.000	-0.00012	-0.00071	0.04079	
1.630	0.000	-0.00014	-0.00074	0.04079	
1.635	0	-0.00015	-0.00072	0.04079	
1.640	0	-0.00013	-0.00071	0.04079	
1.645	0	-0.00013	-0.00074	0.04079	
1.650	0	-0.00015	-0.00073	0.04079	
1.655	0	-0.00013	-0.00070	0.04079	
1.660	0	-0.00012	-0.00072	0.04079	
1.665	0	-0.00013	-0.00073	0.04079	
1.670	0	-0.00013	-0.00070	0.04079	
1.675	0	-0.00012	-0.00070	0.04079	
1.680	0	-0.00013	-0.00072	0.04079	
1.685	0	-0.00014	-0.00070	0.04079	
1.690	0	-0.00012	-0.00068	0.04079	
1.695	0	-0.00012	-0.00071	0.04079	
1.700	0	-0.00014	-0.00070	0.04079	
1.705	0	-0.00012	-0.00067	0.04079	
1.710	0	-0.00011	-0.00069	0.04079	
1.715	0	-0.00013	-0.00070	0.04079	
1.720	0	-0.00013	-0.00067	0.04079	
1.725	0	-0.00011	-0.00067	0.04079	
1.730	0	-0.00012	-0.00070	0.04080	
1.735	0	-0.00013	-0.00068	0.04080	
1.740	0	-0.00011	-0.00067	0.04080	
1.745	0.000	-0.00011	-0.00071	0.04080	
1.750	0.000	-0.00013	-0.00071	0.04080	
1.755	0.000	-0.00012	-0.00070	0.04080	
1.760	0.000	-0.00011	-0.00073	0.04080	
1.765	0.000	-0.00012	-0.00076	0.04080	
1.770	0.000	-0.00012	-0.00074	0.04080	
1.775	0.000	-0.00011	-0.00076	0.04080	
1.780	0.000	-0.00012	-0.00079	0.04080	
1.785	0.000	-0.00013	-0.00078	0.04080	
1.790	0.000	-0.00011	-0.00078	0.04080	
1.795	0.000	-0.00011	-0.00082	0.04080	
1.800	0.000	-0.00012	-0.00081	0.04080	
1.805	0.000	-0.00011	-0.00079	0.04080	
1.810	0.000	0.000	-0.00082	0.04080	
1.815	0.000	-0.00012	-0.00083	0.04080	
1.820	0.000	-0.00012	-0.00080	0.04080	
1.825	0.000	-0.00010	-0.00080	0.04080	
1.830	0.000	-0.00011	-0.00082	0.04080	
1.835	0.000	-0.00013	-0.00080	0.04080	
1.840	0	-0.00011	-0.00078	0.04080	
1.845	0	-0.00011	-0.00080	0.04080	
1.850	0	-0.00012	-0.00079	0.04080	
1.855	0	-0.00012	-0.00076	0.04080	
1.860	0	-0.00011	-0.00078	0.04080	
1.865	0.000	-0.00013	-0.00079	0.04080	
1.870	0.000	-0.00013	-0.00075	0.04080	
1.875	0.000	-0.00011	-0.00075	0.04080	
1.880	0.000	-0.00012	-0.00078	0.04080	
1.885	0.000	-0.00014	-0.00075	0.04080	
1.890	0.000	-0.00012	-0.00074	0.04080	
1.895	0.000	-0.00012	-0.00077	0.04080	
1.900	0.000	-0.00014	-0.00076	0.04080	
1.905	0.000	-0.00013	-0.00073	0.04080	
1.910	0.000	-0.00012	-0.00076	0.04081	
1.915	0.000	-0.00014	-0.00078	0.04081	
1.920	0.000	-0.00014	-0.00076	0.04081	
1.925	0.000	-0.00012	-0.00078	0.04081	
1.930	0.000	-0.00013	-0.00082	0.04081	
1.935	0.000	-0.00014	-0.00081	0.04081	
1.940	0.000	-0.00012	-0.00081	0.04081	
1.945	0.000	-0.00011	-0.00085	0.04082	
1.950	0.000	-0.00013	-0.00085	0.04082	
1.955	0.000	-0.00012	-0.00084	0.04082	
1.960	0	-0.00011	-0.00086	0.04082	
1.965	0	-0.00012	-0.00088	0.04082	
1.970	0	-0.00013	-0.00085	0.04082	
1.975	0	-0.00011	-0.00085	0.04082	
1.980	0	-0.00012	-0.00088	0.04082	
1.985	0	-0.00013	-0.00085	0.04081	
1.990	0	-0.00011	-0.00083	0.04081	
1.995	0	-0.00011	-0.00085	0.04081	
2.000	0	-0.00013	-0.00083	0.04081	
2.005	0	-0.00012	-0.00079	0.04081	
2.010	0	-0.00011	-0.00080	0.04081	
2.015	0	-0.00012	-0.00080	0.04081	
2.020	0	-0.00013	-0.00076	0.04080	
2.025	0	-0.00011	-0.00076	0.04080	
2.030	0	-0.00012	-0.00077	0.04080	
2.035	0.000	-0.00013	-0.00074	0.04080	
2.040	0.000	-0.00011	-0.00071	0.04080	
2.045	0	-0.00011	-0.00074	0.04079	
2.050	0	-0.00013	-0.00072	0.04079	
2.055	0	-0.00012	-0.00069	0.04079	
2.060	0	-0.00011	-0.00071	0.04079	
2.065	0	-0.00012	-0.00072	0.04079	
2.070	0	-0.00012	-0.00068	0.04079	
2.075	0	-0.00011	-0.00069	0.04079	
2.080	0.000	-0.00012	-0.00072	0.04079	
2.085	0.000	-0.00013	-0.00069	0.04079	
2.090	0.000	-0.00011	-0.00068	0.04080	
2.095	0.000	-0.00011	-0.00071	0.04080	
2.100	0.000	-0.00013	-0.00071	0.04080	
2.105	0	-0.00012	-0.00068	0.04080	
2.110	0	-0.00010	-0.00070	0.04080	
2.115	0	-0.00012	-0.00071	0.04080	
2.120	0.000	-0.00012	-0.00068	0.04081	
2.125	0.000	-0.00010	-0.00068	0.04081	
2.130	0.000	-0.00011	-0.00071	0.04081	
2.135	0.000	-0.00012	-0.00068	0.04081	
2.140	0.000	-0.00010	-0.00067	0.04081	
2.145	0.000	0.000	-0.00069	0.04081	
2.150	0.000	-0.00011	-0.00068	0.04081	
2.155	0.000	-0.00010	-0.00066	0.04081	
2.160	0.000	0.000	-0.00067	0.04081	
2.165	0.000	-0.00011	-0.00068	0.04081	
2.170	0.000	-0.00011	-0.00065	0.04081	
2.175	0.000	0.000	-0.00066	0.04081	
2.180	0.000	-0.00010	-0.00068	0.04081	
2.185	0.000	-0.00011	-0.00066	0.04081	
2.190	0.000	0.000	-0.00065	0.04081	
2.195	0.000	0.000	-0.00068	0.04081	
2.200	0.000	-0.00011	-0.00068	0.04081	
2.205	0.000	0.000	-0.00066	0.04081	
2.210	0.000	0.000	-0.00068	0.04081	
2.215	0.000	-0.00011	-0.00070	0.04081	
2.220	0.000	-0.00011	-0.00067	0.04081	
2.225	0.000	0.000	-0.00067	0.04081	
2.230	0.000	-0.00011	-0.00070	0.04081	
2.235	0.000	-0.00012	-0.00067	0.04081	
2.240	0.000	-0.00010	-0.00065	0.04081	
2.245	0.000	-0.00010	-0.00068	0.04081	
2.250	0.000	-0.00012	-0.00066	0.04081	
2.255	0.000	-0.00011	-0.00063	0.04082	
2.260	0.000	0.000	-0.00064	0.04082	
2.265	0.000	-0.00011	-0.00064	0.04082	
2.270	0.000	-0.00012	-0.00060	0.04082	
2.275	0.000	-0.00010	-0.00060	0.04082	
2.280	0.000	-0.00011	-0.00062	0.04082	
2.285	0.000	-0.00013	-0.00060	0.04082	
2.290	0.000	-0.00011	-0.00058	0.04082	
2.295	0.000	-0.00011	-0.00060	0.04082	
2.300	0.000	-0.00013	-0.00060	0.04082	
2.305	0.000	-0.00012	-0.00057	0.04083	
2.310	0.000	-0.00011	-0.00059	0.04083	
2.315	0.000	-0.00012	-0.00060	0.04083	
2.320	0.000	-0.00013	-0.00057	0.04084	
2.325	0.000	-0.00011	-0.00058	0.04084	
2.330	0.000	-0.00012	-0.00061	0.04084	
2.335	0.000	-0.00014	-0.00059	0.04084	
2.340	0.000	-0.00012	-0.00059	0.04084	
2.345	0.000	-0.00012	-0.00062	0.04084	
2.350	0.000	-0.00014	-0.00063	0.04084	
2.355	0.000	-0.00013	-0.00061	0.04083	
2.360	0.000	-0.00011	-0.00064	0.04083	
2.365	0.000	-0.00013	-0.00066	0.04083	
2.370	0.000	-0.00013	-0.00063	0.04082	
2.375	0.000	-0.00011	-0.00064	0.04082	
2.380	0.000	-0.00012	-0.00067	0.04082	
2.385	0.000	-0.00013	-0.00064	0.04082	
2.390	0.000	-0.00012	-0.00063	0.04081	
2.395	0.000	-0.00012	-0.00066	0.04081	
2.400	0.000	-0.00014	-0.00065	0.04081	
2.405	0.000	-0.00013	-0.00062	0.04081	
2.410	0.000	-0.00011	-0.00064	0.04081	
2.415	0.000	-0.00013	-0.00065	0.04081	
2.420	0.000	-0.00014	-0.00062	0.04080	
2.425	0.000	-0.00012	-0.00062	0.04080	
2.430	0.000	-0.00013	-0.00065	0.04080	
2.435	0.000	-0.00014	-0.00062	0.04080	
2.440	0.000	-0.00012	-0.00061	0.04080	
2.445	0.000	-0.00012	-0.00064	0.04080	
2.450	0.000	-0.00014	-0.00063	0.04080	
2.455	0.000	-0.00013	-0.00060	0.04080	
2.460	0.000	-0.00011	-0.00062	0.04080	
2.465	0.000	-0.00013	-0.00064	0.04080	
2.470	0.000	-0.00013	-0.00060	0.04080	
2.475	0.000	-0.00011	-0.00061	0.04080	
2.480	0.000	-0.00011	-0.00064	0.04080	
2.485	0.000	-0.00013	-0.00061	0.04080	
2.490	0.000	-0.00011	-0.00060	0.04080	
2.495	0.000	-0.00011	-0.00063	0.04080	
2.500	0.000	-0.00013	-0.00062	0.04080	
2.505	0.000	-0.00012	-0.00060	0.04080	
2.510	0.000	-0.00010	-0.00061	0.04080	
2.515	0.000	-0.00012	-0.00063	0.04080	
2.520	0.000	-0.00013	-0.00059	0.04080	
2.525	0.000	-0.00011	-0.00060	0.04080	
2.530	0.000	-0.00012	-0.00062	0.04080	
2.535	0.000	-0.00014	-0.00060	0.04081	
2.540	0.000	-0.00012	-0.00058	0.04081	
2.545	0.000	-0.00012	-0.00061	0.04081	
2.550	0.000	-0.00014	-0.00061	0.04082	
2.555	0.000	-0.00013	-0.00058	0.04082	
2.560	0.000	-0.00012	-0.00060	0.04082	
2.565	0.000	-0.00014	-0.00062	0.04082	
2.570	0.000	-0.00014	-0.00059	0.04082	
2.575	0.000	-0.00011	-0.00059	0.04082	
2.580	0.000	-0.00012	-0.00062	0.04082	
2.585	0.000	-0.00013	-0.00060	0.04081	
2.590	0.000	-0.00011	-0.00059	0.04081	
2.595	0.000	0.000	-0.00062	0.04081	
2.600	0.000	-0.00011	-0.00062	0.04081	
2.605	0.000	-0.00010	-0.00060	0.04080	
2.610	0.000	0.000	-0.00062	0.04080	
2.615	0.000	-0.00011	-0.00064	0.04080	
2.620	0.000	-0.00011	-0.00061	0.04079	
2.625	0.000	0.000	-0.00061	0.04079	
2.630	0.000	0.000	-0.00064	0.04079	
2.635	0.000	-0.00011	-0.00062	0.04079	
2.640	0.000	0.000	-0.00060	0.04079	
2.645	0.000	0.000	-0.00063	0.04078	
2.650	0.000	-0.00011	-0.00062	0.04078	
2.655	0.000	0.000	-0.00059	0.04079	
2.660	0.000	0.000	-0.00060	0.04079	
2.665	0.000	0.000	-0.00062	0.04079	
2.670	0.000	0.000	-0.00058	0.04079	
2.675	0.000	0.000	-0.00059	0.04079	
2.680	0.000	0.000	-0.00061	0.04079	
2.685	0.000	0.000	-0.00059	0.04080	
2.690	0.000	0.000	-0.00057	0.04080	
2.695	0.000	0.000	-0.00060	0.04080	
2.700	0.000	0.000	-0.00060	0.04080	
2.705	0.000	0.000	-0.00057	0.04080	
2.710	0.000	0.000	-0.00059	0.04080	
2.715	0.000	0.000	-0.00061	0.04080	
2.720	0.000	0.000	-0.00058	0.04081	
2.725	0.000	0.000	-0.00058	0.04081	
2.730	0.000	0.000	-0.00061	0.04081	
2.735	0	0.000	-0.00059	0.04081	
2.740	0	0.000	-0.00058	0.04080	
2.745	0	0.000	-0.00061	0.04080	
2.750	0	0.000	-0.00061	0.04080	
2.755	0.000	0.000	-0.00059	0.04080	
2.760	0.000	0.000	-0.00061	0.04080	
2.765	0.000	0.000	-0.00062	0.04080	
2.770	0.000	0.000	-0.00059	0.04080	
2.775	0.000	0.000	-0.00060	0.04080	
2.780	0.000	0.000	-0.00063	0.04080	
2.785	0.000	0.000	-0.00061	0.04080	
2.790	0.000	0.000	-0.00059	0.04080	
2.795	0.000	0.000	-0.00062	0.04080	
2.800	0.000	0.000	-0.00062	0.04080	
2.805	0.000	0.000	-0.00059	0.04080	
2.810	0.000	0.000	-0.00062	0.04080	
2.815	0.000	0.000	-0.00063	0.04080	
2.820	0.000	0.000	-0.00060	0.04081	
2.825	0.000	0.000	-0.00061	0.04081	
2.830	0.000	0.000	-0.00064	0.04081	
2.835	0.000	0.000	-0.00062	0.04081	
2.840	0.000	0.000	-0.00060	0.04081	
2.845	0.000	0.000	-0.00063	0.04081	
2.850	0.000	0.000	-0.00063	0.04081	
2.855	0.000	0.000	-0.00060	0.04081	
2.860	0.000	0.000	-0.00062	0.04081	
2.865	0.000	0.000	-0.00063	0.04081	
2.870	0.000	0.000	-0.00060	0.04081	
2.875	0.000	0.000	-0.00060	0.04081	
2.880	0.000	0.000	-0.00063	0.04081	
2.885	0.000	0.000	-0.00061	0.04081	
2.890	0.000	0.000	-0.00059	0.04081	
2.895	0.000	0.000	-0.00062	0.04080	
2.900	0.000	0.000	-0.00061	0.04081	
2.905	0.000	0.000	-0.00059	0.04081	
2.910	0.000	0.000	-0.00060	0.04081	
2.915	0.000	0.000	-0.00062	0.04081	
2.920	0.000	0.000	-0.00059	0.04081	
2.925	0.000	0.000	-0.00059	0.04081	
2.930	0.000	0.000	-0.00062	0.04082	
2.935	0.000	0.000	-0.00060	0.04082	
2.940	0.000	0.000	-0.00058	0.04082	
2.945	0.000	0.000	-0.00061	0.04082	
2.950	0.000	0.000	-0.00061	0.04083	
2.955	0.000	0.000	-0.00058	0.04083	
2.960	0.000	0.000	-0.00061	0.04083	
2.965	0.000	0.000	-0.00062	0.04083	
2.970	0.000	0.000	-0.00059	0.04082	
2.975	0.000	0.000	-0.00060	0.04082	
2.980	0.000	0.000	-0.00063	0.04082	
2.985	0.000	0.000	-0.00061	0.04082	
2.990	0.000	0.000	-0.00059	0.04082	
2.995	0.000	0.000	-0.00062	0.04082	
3.000	0.000	0.000	-0.00062	0.04082	
3.005	0.000	0.000	-0.00059	0.04081	
3.010	0.000	0.000	-0.00061	0.04081	
3.015	0.000	0.000	-0.00063	0.04081	
3.020	0.000	0.000	-0.00060	0.04081	
3.025	0.000	0.000	-0.00060	0.04081	
3.030	0.000	0.000	-0.00063	0.04081	
3.035	0.000	0.000	-0.00061	0.04081	
3.040	0.000	0.000	-0.00059	0.04081	
3.045	0.000	0.000	-0.00062	0.04081	
3.050	0.000	0.000	-0.00061	0.04081	
3.055	0.000	0.000	-0.00059	0.04081	
3.060	0.000	0.000	-0.00060	0.04081	
3.065	0.000	0.000	-0.00062	0.04081	
3.070	0.000	0.000	-0.00059	0.04081	
3.075	0.000	0.000	-0.00059	0.04081	
3.080	0.000	0.000	-0.00062	0.04081	
3.085	0.000	0.000	-0.00060	0.04081	
3.090	0.000	0.000	-0.00058	0.04081	
3.095	0.000	0.000	-0.00061	0.04081	
3.100	0.000	0.000	-0.00061	0.04081	
3.105	0.000	0.000	-0.00058	0.04081	
3.110	0.000	0.000	-0.00060	0.04081	
3.115	0.000	0.000	-0.00061	0.04081	
3.120	0.000	0.000	-0.00059	0.04081	
3.125	0.000	0.000	-0.00059	0.04081	
3.130	0.000	0.000	-0.00062	0.04081	
3.135	0.000	0.000	-0.00060	0.04081	
3.140	0.000	0.000	-0.00058	0.04082	
3.145	0.000	0.000	-0.00061	0.04082	
3.150	0.000	0.000	-0.00061	0.04082	
3.155	0.000	0.000	-0.00058	0.04082	
3.160	0.000	0.000	-0.00060	0.04082	
3.165	0.000	0.000	-0.00062	0.04082	
3.170	0.000	0.000	-0.00059	0.04082	
3.175	0.000	0.000	-0.00059	0.04082	
3.180	0.000	0.000	-0.00062	0.04082	
3.185	0.000	0.000	-0.00060	0.04083	
3.190	0.000	0.000	-0.00059	0.04083	
3.195	0.000	0.000	-0.00062	0.04083	
3.200	0.000	0.000	-0.00061	0.04083	
3.205	0.000	0.000	-0.00059	0.04083	
3.210	0.000	0.000	-0.00061	0.04083	
3.215	0.000	0.000	-0.00062	0.04083	
3.220	0.000	0.000	-0.00059	0.04083	
3.225	0.000	0.000	-0.00060	0.04084	
3.230	0.000	0.000	-0.00062	0.04084	
3.235	0.000	0.000	-0.00060	0.04084	
3.240	0.000	0.000	-0.00059	0.04084	
3.245	0.000	0.000	-0.00062	0.04084	
3.250	0.000	0.000	-0.00061	0.04084	
3.255	0.000	0.000	-0.00058	0.04084	
3.260	0.000	0.000	-0.00060	0.04083	
3.265	0.000	0.000	-0.00062	0.04083	
3.270	0.000	0.000	-0.00059	0.04084	
3.275	0.000	0.000	-0.00059	0.04084	
3.280	0.000	0.000	-0.00062	0.04084	
3.285	0.000	0.000	-0.00060	0.04084	
3.290	0.000	0.000	-0.00058	0.04084	
3.295	0.000	0.000	-0.00061	0.04084	
3.300	0.000	0.000	-0.00061	0.04084	
3.305	0.000	0.000	-0.00058	0.04084	
3.310	0.000	0.000	-0.00060	0.04084	
3.315	0.000	0.000	-0.00062	0.04084	
3.320	0.000	0.000	-0.00059	0.04084	
3.325	0.000	0.000	-0.00060	0.04084	
3.330	0.000	0.000	-0.00062	0.04084	
3.335	0.000	0.000	-0.00060	0.04084	
3.340	0.000	0.000	-0.00059	0.04084	
3.345	0.000	0.000	-0.00062	0.04083	
3.350	0.000	0.000	-0.00061	0.04083	
3.355	0.000	0.000	-0.00059	0.04083	
3.360	0.000	0.000	-0.00061	0.04084	
3.365	0.000	0.000	-0.00062	0.04084	
3.370	0.000	0.000	-0.00059	0.04084	
3.375	0.000	0.000	-0.00060	0.04084	
3.380	0.000	0.000	-0.00062	0.04084	
3.385	0.000	0.000	-0.00061	0.04084	
3.390	0.000	0.000	-0.00059	0.04084	
3.395	0.000	0.000	-0.00062	0.04084	
3.400	0.000	0.000	-0.00062	0.04084	
3.405	0.000	0.000	-0.00059	0.04084	
3.410	0.000	0.000	-0.00061	0.04084	
3.415	0.000	0.000	-0.00063	0.04084	
3.420	0.000	0.000	-0.00060	0.04084	
3.425	0.000	0.000	-0.00061	0.04083	
3.430	0.000	0.000	-0.00064	0.04083	
3.435	0.000	0.000	-0.00062	0.04083	
3.440	0.000	0.000	-0.00060	0.04083	
3.445	0.000	0.000	-0.00063	0.04083	
3.450	0.000	0.000	-0.00063	0.04083	
3.455	0.000	0.000	-0.00060	0.04083	
3.460	0.000	0.000	-0.00062	0.04082	
3.465	0.000	0.000	-0.00064	0.04082	
3.470	0.000	0.000	-0.00061	0.04083	
3.475	0.000	0.000	-0.00061	0.04083	
3.480	0.000	0.000	-0.00064	0.04083	
3.485	0.000	0.000	-0.00062	0.04083	
3.490	0.000	0.000	-0.00060	0.04083	
3.495	0.000	0.000	-0.00063	0.04083	
3.500	0.000	0.000	-0.00063	0.04083	
3.505	0.000	0.000	-0.00060	0.04083	
3.510	0.000	0.000	-0.00062	0.04084	
3.515	0.000	0.000	-0.00063	0.04084	
3.520	0.000	0.000	-0.00060	0.04084	
3.525	0.000	0.000	-0.00060	0.04084	
3.530	0.000	0.000	-0.00063	0.04084	
3.535	0.000	0.000	-0.00061	0.04084	
3.540	0.000	0.000	-0.00059	0.04084	
3.545	0.000	0.000	-0.00062	0.04083	
3.550	0.000	0.000	-0.00062	0.04083	
3.555	0.000	0.000	-0.00059	0.04083	
3.560	0.000	0.000	-0.00061	0.04083	
3.565	0.000	0.000	-0.00063	0.04083	
3.570	0.000	0.000	-0.00060	0.04083	
3.575	0.000	0.000	-0.00060	0.04083	
3.580	0.000	0.000	-0.00063	0.04083	
3.585	0.000	0.000	-0.00061	0.04083	
3.590	0.000	0.000	-0.00059	0.04083	
3.595	0.000	0.000	-0.00062	0.04083	
3.600	0.000	0.000	-0.00062	0.04083	
3.605	0.000	0.000	-0.00059	0.04083	
3.610	0.000	0.000	-0.00061	0.04083	
3.615	0.000	0.000	-0.00062	0.04084	
3.620	0.000	-0.00010	-0.00059	0.04084	
3.625	0.000	0.000	-0.00059	0.04084	
3.630	0.000	0.000	-0.00062	0.04084	
3.635	0.000	-0.00011	-0.00060	0.04084	
3.640	0.000	0.000	-0.00058	0.04084	
3.645	0.000	0.000	-0.00061	0.04083	
3.650	0.000	-0.00011	-0.00061	0.04083	
3.655	0.000	-0.00010	-0.00058	0.04083	
3.660	0.000	0.000	-0.00060	0.04082	
3.665	0.000	-0.00010	-0.00061	0.04082	
3.670	0.000	-0.00011	-0.00059	0.04082	
3.675	0.000	0.000	-0.00059	0.04082	
3.680	0.000	0.000	-0.00062	0.04082	
3.685	0.000	-0.00011	-0.00060	0.04082	
3.690	0.000	0.000	-0.00058	0.04082	
3.695	0.000	0.000	-0.00061	0.04082	
3.700	0.000	0.000	-0.00061	0.04082	
3.705	0.000	0.000	-0.00058	0.04082	
3.710	0.000	0.000	-0.00060	0.04082	
3.715	0.000	0.000	-0.00062	0.04082	
3.720	0.000	0.000	-0.00059	0.04082	
3.725	0.000	0.000	-0.00059	0.04082	
3.730	0.000	0.000	-0.00062	0.04082	
3.735	0.000	0.000	-0.00060	0.04082	
3.740	0.000	0.000	-0.00059	0.04082	
3.745	0.000	0.000	-0.00062	0.04082	
3.750	0.000	0.000	-0.00061	0.04082	
3.755	0.000	0.000	-0.00059	0.04081	
3.760	0.000	0.000	-0.00060	0.04081	
3.765	0.000	0.000	-0.00062	0.04081	
3.770	0.000	0.000	-0.00059	0.04081	
3.775	0.000	0.000	-0.00059	0.04081	
3.780	0.000	0.000	-0.00062	0.04081	
3.785	0.000	0.000	-0.00060	0.04081	
3.790	0.000	0.000	-0.00059	0.04081	
3.795	0.000	0.000	-0.00062	0.04081	
3.800	0.000	0.000	-0.00062	0.04081	
3.805	0.000	0.000	-0.00060	0.04081	
3.810	0.000	0.000	-0.00062	0.04081	
3.815	0.000	0.000	-0.00064	0.04081	
3.820	0.000	-0.00010	-0.00061	0.04081	
3.825	0.000	0.000	-0.00062	0.04081	
3.830	0.000	0.000	-0.00065	0.04081	
3.835	0.000	-0.00011	-0.00064	0.04081	
3.840	0.000	0.000	-0.00062	0.04081	
3.845	0.000	0.000	-0.00065	0.04082	
3.850	0.000	-0.00011	-0.00065	0.04082	
3.855	0.000	0.000	-0.00062	0.04081	
3.860	0.000	0.000	-0.00064	0.04081	
3.865	0.000	0.000	-0.00065	0.04081	
3.870	0.000	-0.00010	-0.00062	0.04081	
3.875	0.000	0.000	-0.00062	0.04081	
3.880	0.000	0.000	-0.00065	0.04081	
3.885	0.000	-0.00011	-0.00063	0.04081	
3.890	0.000	0.000	-0.00061	0.04081	
3.895	0.000	0.000	-0.00064	0.04081	
3.900	0.000	-0.00010	-0.00064	0.04081	
3.905	0.000	0.000	-0.00061	0.04081	
3.910	0.000	0.000	-0.00062	0.04081	
3.915	0.000	0.000	-0.00064	0.04081	
3.920	0.000	-0.00010	-0.00061	0.04081	
3.925	0.000	0.000	-0.00061	0.04082	
3.930	0.000	0.000	-0.00064	0.04082	
3.935	0.000	-0.00010	-0.00062	0.04082	
3.940	0.000	0.000	-0.00060	0.04082	
3.945	0.000	0.000	-0.00063	0.04082	
3.950	0.000	0.000	-0.00063	0.04082	
3.955	0.000	0.000	-0.00060	0.04082	
3.960	0.000	0.000	-0.00062	0.04082	
3.965	0.000	0.000	-0.00064	0.04082	
3.970	0.000	0.000	-0.00061	0.04082	
3.975	0.000	0.000	-0.00061	0.04082	
3.980	0.000	0.000	-0.00064	0.04082	
3.985	0.000	0.000	-0.00062	0.04082	
3.990	0.000	0.000	-0.00061	0.04082	
3.995	0.000	0.000	-0.00064	0.04081	
4.000	0.000	0.000	-0.00064	0.04081	
4.005	0.000	0.000	-0.00061	0.04081	
4.010	0.000	0.000	-0.00063	0.04081	
4.015	0.000	0.000	-0.00065	0.04081	
4.020	0.000	0.000	-0.00062	0.04081	
4.025	0.000	0.000	-0.00062	0.04080	
4.030	0.000	0.000	-0.00065	0.04080	
4.035	0.000	-0.00010	-0.00063	0.04080	
4.040	0.000	0.000	-0.00061	0.04080	
4.045	0.000	0.000	-0.00065	0.04081	
4.050	0.000	-0.00011	-0.00064	0.04081	
4.055	0.000	0.000	-0.00061	0.04081	
4.060	0.000	0.000	-0.00063	0.04081	
4.065	0.000	0.000	-0.00065	0.04081	
4.070	0.000	0.000	-0.00061	0.04081	
4.075	0.000	0.000	-0.00061	0.04081	
4.080	0.000	0.000	-0.00064	0.04081	
4.085	0.000	0.000	-0.00062	0.04081	
4.090	0.000	0.000	-0.00060	0.04081	
4.095	0.000	0.000	-0.00063	0.04080	
4.100	0.000	0.000	-0.00063	0.04080	
4.105	0.000	0.000	-0.00060	0.04080	
4.110	0.000	0.000	-0.00062	0.04080	
4.115	0.000	0.000	-0.00064	0.04081	
4.120	0.000	0.000	-0.00061	0.04081	
4.125	0.000	0.000	-0.00061	0.04081	
4.130	0.000	0.000	-0.00064	0.04081	
4.135	0.000	0.000	-0.00062	0.04081	
4.140	0.000	0.000	-0.00060	0.04082	
4.145	0.000	0.000	-0.00063	0.04082	
4.150	0.000	0.000	-0.00063	0.04082	
4.155	0.000	0.000	-0.00060	0.04082	
4.160	0.000	0.000	-0.00062	0.04082	
4.165	0.000	0.000	-0.00064	0.04082	
4.170	0.000	0.000	-0.00061	0.04082	
4.175	0.000	0.000	-0.00061	0.04082	
4.180	0.000	0.000	-0.00064	0.04082	
4.185	0.000	0.000	-0.00062	0.04082	
4.190	0.000	0.000	-0.00061	0.04082	
4.195	0.000	0.000	-0.00064	0.04082	
4.200	0.000	0.000	-0.00063	0.04082	
4.205	0.000	0.000	-0.00060	0.04082	
4.210	0.000	0.000	-0.00062	0.04082	
4.215	0.000	0.000	-0.00064	0.04082	
4.220	0.000	0.000	-0.00061	0.04082	
4.225	0.000	0.000	-0.00061	0.04082	
4.230	0.000	0.000	-0.00064	0.04082	
4.235	0.000	0.000	-0.00062	0.04082	
4.240	0.000	0.000	-0.00061	0.04082	
4.245	0.000	0.000	-0.00064	0.04082	
4.250	0.000	0.000	-0.00064	0.04082	
4.255	0.000	0.000	-0.00061	0.04082	
4.260	0.000	0.000	-0.00063	0.04081	
4.265	0.000	0.000	-0.00065	0.04081	
4.270	0.000	0.000	-0.00062	0.04081	
4.275	0.000	0.000	-0.00062	0.04081	
4.280	0.000	0.000	-0.00065	0.04081	
4.285	0.000	0.000	-0.00064	0.04081	
4.290	0	0.000	-0.00062	0.04081	
4.295	0	0.000	-0.00065	0.04081	
4.300	0	0.000	-0.00065	0.04081	
4.305	0	0.000	-0.00062	0.04081	
4.310	0	0.000	-0.00064	0.04081	
4.315	0	0.000	-0.00066	0.04081	
4.320	0	0.000	-0.00063	0.04081	
4.325	0	0.000	-0.00062	0.04081	
4.330	0	0.000	-0.00065	0.04081	
4.335	0	0.000	-0.00063	0.04081	
4.340	0	0.000	-0.00061	0.04080	
4.345	0	0.000	-0.00064	0.04080	
4.350	0	0.000	-0.00064	0.04080	
4.355	0	0.000	-0.00061	0.04080	
4.360	0.000	0.000	-0.00063	0.04080	
4.365	0.000	0.000	-0.00065	0.04079	
4.370	0.000	0.000	-0.00062	0.04079	
4.375	0.000	0.000	-0.00062	0.04079	
4.380	0.000	0.000	-0.00066	0.04079	
4.385	0.000	0.000	-0.00064	0.04079	
4.390	0.000	0.000	-0.00062	0.04079	
4.395	0.000	0.000	-0.00065	0.04079	
4.400	0.000	0.000	-0.00065	0.04079	
4.405	0.000	0.000	-0.00063	0.04079	
4.410	0.000	0.000	-0.00065	0.04079	
4.415	0.000	0.000	-0.00066	0.04080	
4.420	0.000	0.000	-0.00064	0.04080	
4.425	0.000	0.000	-0.00064	0.04080	
4.430	0.000	0.000	-0.00067	0.04080	
4.435	0.000	0.000	-0.00065	0.04080	
4.440	0.000	0.000	-0.00063	0.04080	
4.445	0.000	0.000	-0.00066	0.04080	
4.450	0.000	0.000	-0.00065	0.04080	
4.455	0.000	0.000	-0.00062	0.04080	
4.460	0.000	0.000	-0.00064	0.04081	
4.465	0.000	0.000	-0.00065	0.04081	
4.470	0.000	0.000	-0.00062	0.04081	
4.475	0.000	0.000	-0.00062	0.04081	
4.480	0.000	0.000	-0.00065	0.04081	
4.485	0.000	0.000	-0.00062	0.04081	
4.490	0.000	0.000	-0.00061	0.04081	
4.495	0.000	0.000	-0.00064	0.04081	
4.500	0.000	0.000	-0.00063	0.04080	
4.505	0.000	0.000	-0.00060	0.04080	
4.510	0.000	0.000	-0.00062	0.04080	
4.515	0.000	0.000	-0.00064	0.04080	
4.520	0.000	0.000	-0.00061	0.04081	
4.525	0.000	0.000	-0.00061	0.04081	
4.530	0.000	0.000	-0.00064	0.04081	
4.535	0.000	0.000	-0.00062	0.04081	
4.540	0.000	0.000	-0.00060	0.04081	
4.545	0.000	0.000	-0.00063	0.04081	
4.550	0.000	0.000	-0.00063	0.04081	
4.555	0.000	0.000	-0.00060	0.04081	
4.560	0.000	0.000	-0.00062	0.04081	
4.565	0.000	0.000	-0.00064	0.04081	
4.570	0.000	0.000	-0.00061	0.04081	
4.575	0.000	0.000	-0.00061	0.04081	
4.580	0.000	0.000	-0.00064	0.04081	
4.585	0.000	0.000	-0.00062	0.04081	
4.590	0.000	0.000	-0.00061	0.04082	
4.595	0.000	0.000	-0.00064	0.04082	
4.600	0.000	0.000	-0.00064	0.04082	
4.605	0.000	0.000	-0.00061	0.04082	
4.610	0.000	0.000	-0.00062	0.04082	
4.615	0.000	0.000	-0.00065	0.04082	
4.620	0.000	0.000	-0.00062	0.04081	
4.625	0.000	0.000	-0.00062	0.04081	
4.630	0.000	0.000	-0.00066	0.04081	
4.635	0.000	0.000	-0.00064	0.04081	
4.640	0.000	0.000	-0.00063	0.04081	
4.645	0.000	0.000	-0.00066	0.04081	
4.650	0.000	0.000	-0.00067	0.04081	
4.655	0.000	0.000	-0.00064	0.04081	
4.660	0.000	0.000	-0.00067	0.04081	
4.665	0.000	0.000	-0.00069	0.04080	
4.670	0.000	0.000	-0.00066	0.04080	
4.675	0.000	0.000	-0.00066	0.04080	
4.680	0.000	0.000	-0.00069	0.04080	
4.685	0.000	0.000	-0.00067	0.04080	
4.690	0.000	0.000	-0.00065	0.04080	
4.695	0.000	0.000	-0.00068	0.04080	
4.700	0.000	0.000	-0.00068	0.04080	
4.705	0.000	0.000	-0.00065	0.04081	
4.710	0.000	0.000	-0.00067	0.04081	
4.715	0.000	0.000	-0.00069	0.04081	
4.720	0.000	0.000	-0.00066	0.04081	
4.725	0.000	0.000	-0.00066	0.04081	
4.730	0.000	0.000	-0.00069	0.04081	
4.735	0.000	0.000	-0.00067	0.04081	
4.740	0.000	0.000	-0.00065	0.04081	
4.745	0.000	0.000	-0.00068	0.04081	
4.750	0.000	0.000	-0.00068	0.04081	
4.755	0.000	0.000	-0.00066	0.04081	
4.760	0.000	0.000	-0.00068	0.04081	
4.765	0.000	0.000	-0.00070	0.04081	
4.770	0.000	0.000	-0.00067	0.04081	
4.775	0.000	0.000	-0.00067	0.04081	
4.780	0.000	0.000	-0.00071	0.04081	
4.785	0.000	0.000	-0.00069	0.04081	
4.790	0.000	0.000	-0.00067	0.04081	
4.795	0.000	0.000	-0.00070	0.04081	
4.800	0.000	0.000	-0.00070	0.04081	
4.805	0.000	0.000	-0.00067	0.04081	
4.810	0.000	0.000	-0.00069	0.04081	
4.815	0.000	0.000	-0.00071	0.04081	
4.820	0.000	0.000	-0.00068	0.04081	
4.825	0.000	0.000	-0.00068	0.04081	
4.830	0.000	0.000	-0.00071	0.04080	
4.835	0.000	0.000	-0.00070	0.04080	
4.840	0.000	0.000	-0.00068	0.04080	
4.845	0.000	0.000	-0.00071	0.04080	
4.850	0.000	0.000	-0.00071	0.04081	
4.855	0.000	0.000	-0.00068	0.04081	
4.860	0.000	0.000	-0.00070	0.04081	
4.865	0.000	0.000	-0.00072	0.04081	
4.870	0.000	0.000	-0.00068	0.04081	
4.875	0.000	0.000	-0.00068	0.04082	
4.880	0.000	0.000	-0.00071	0.04082	
4.885	0.000	0.000	-0.00069	0.04082	
4.890	0.000	0.000	-0.00067	0.04082	
4.895	0.000	0.000	-0.00070	0.04082	
4.900	0.000	0.000	-0.00070	0.04083	
4.905	0.000	0.000	-0.00066	0.04083	
4.910	0.000	0.000	-0.00068	0.04083	
4.915	0.000	0.000	-0.00070	0.04083	
4.920	0.000	0.000	-0.00067	0.04083	
4.925	0.000	0.000	-0.00066	0.04083	
4.930	0.000	0.000	-0.00069	0.04083	
4.935	0.000	0.000	-0.00067	0.04083	
4.940	0.000	0.000	-0.00065	0.04083	
4.945	0.000	0.000	-0.00068	0.04083	
4.950	0.000	0.000	-0.00068	0.04083	
4.955	0.000	0.000	-0.00065	0.04083	
4.960	0.000	0.000	-0.00067	0.04083	
4.965	0.000	0.000	-0.00068	0.04083	
4.970	0.000	0.000	-0.00066	0.04083	
4.975	0.000	0.000	-0.00066	0.04083	
4.980	0.000	0.000	-0.00069	0.04083	
4.985	0.000	0.000	-0.00067	0.04083	
4.990	0.000	0.000	-0.00065	0.04084	
4.995	0.000	0.000	-0.00068	0.04084	
5.000	0.000	0.000	-0.00068	0.04084	
5.005	0.000	0.000	-0.00065	0.04084	
5.010	0.000	0.000	-0.00067	0.04084	
5.015	0.000	0.000	-0.00069	0.04084	
5.020	0.000	0.000	-0.00066	0.04083	
5.025	0.000	0.000	-0.00066	0.04083	
5.030	0.000	0.000	-0.00069	0.04083	
5.035	0.000	0.000	-0.00067	0.04082	
5.040	0.000	0.000	-0.00065	0.04082	
5.045	0.000	0.000	-0.00068	0.04082	
5.050	0.000	0.000	-0.00068	0.04082	
5.055	0.000	0.000	-0.00065	0.04082	
5.060	0.000	0.000	-0.00067	0.04082	
5.065	0.000	0.000	-0.00068	0.04082	
5.070	0.000	0.000	-0.00066	0.04082	
5.075	0.000	0.000	-0.00066	0.04081	
5.080	0.000	0.000	-0.00068	0.04081	
5.085	0.000	0.000	-0.00067	0.04081	
5.090	0.000	0.000	-0.00065	0.04081	
5.095	0.000	0.000	-0.00068	0.04081	
5.100	0.000	0.000	-0.00068	0.04081	
5.105	0.000	0.000	-0.00065	0.04081	
5.110	0.000	0.000	-0.00067	0.04081	
5.115	0.000	0.000	-0.00069	0.04081	
5.120	0.000	0.000	-0.00066	0.04081	
5.125	0.000	0.000	-0.00066	0.04081	
5.130	0.000	0.000	-0.00069	0.04081	
5.135	0.000	0.000	-0.00067	0.04081	
5.140	0.000	0.000	-0.00066	0.04081	
5.145	0.000	0.000	-0.00068	0.04081	
5.150	0.000	0.000	-0.00068	0.04081	
5.155	0.000	0.000	-0.00065	0.04082	
5.160	0.000	0.000	-0.00067	0.04082	
5.165	0.000	0.000	-0.00069	0.04082	
5.170	0.000	0.000	-0.00066	0.04082	
5.175	0.000	0.000	-0.00066	0.04082	
5.180	0.000	0.000	-0.00069	0.04082	
5.185	0.000	0.000	-0.00067	0.04082	
5.190	0.000	0.000	-0.00065	0.04082	
5.195	0.000	0.000	-0.00068	0.04082	
5.200	0.000	0.000	-0.00068	0.04082	
5.205	0.000	0.000	-0.00065	0.04082	
5.210	0.000	0.000	-0.00067	0.04082	
5.215	0.000	0.000	-0.00070	0.04082	
5.220	0.000	0.000	-0.00067	0.04083	
5.225	0.000	0.000	-0.00067	0.04083	
5.230	0.000	0.000	-0.00070	0.04083	
5.235	0.000	0.000	-0.00069	0.04083	
5.240	0.000	0.000	-0.00067	0.04083	
5.245	0.000	0.000	-0.00071	0.04083	
5.250	0.000	0.000	-0.00071	0.04083	
5.255	0.000	0.000	-0.00068	0.04083	
5.260	0.000	0.000	-0.00070	0.04083	
5.265	0.000	0.000	-0.00072	0.04083	
5.270	0.000	0.000	-0.00069	0.04084	
5.275	0.000	0.000	-0.00068	0.04084	
5.280	0.000	0.000	-0.00071	0.04084	
5.285	0.000	0.000	-0.00069	0.04084	
5.290	0.000	0.000	-0.00067	0.04083	
5.295	0.000	0.000	-0.00070	0.04083	
5.300	0.000	0.000	-0.00070	0.04083	
5.305	0.000	0.000	-0.00066	0.04083	
5.310	0.000	0.000	-0.00068	0.04083	
5.315	0.000	0.000	-0.00070	0.04083	
5.320	0.000	0.000	-0.00067	0.04083	
5.325	0.000	0.000	-0.00067	0.04083	
5.330	0.000	0.000	-0.00070	0.04084	
5.335	0.000	0.000	-0.00068	0.04084	
5.340	0.000	0.000	-0.00066	0.04084	
5.345	0.000	0.000	-0.00069	0.04084	
5.350	0.000	0.000	-0.00070	0.04084	
5.355	0.000	0.000	-0.00067	0.04084	
5.360	0.000	0.000	-0.00069	0.04084	
5.365	0.000	0.000	-0.00071	0.04084	
5.370	0.000	0.000	-0.00068	0.04084	
5.375	0.000	0.000	-0.00068	0.04084	
5.380	0.000	0.000	-0.00071	0.04084	
5.385	0.000	0.000	-0.00069	0.04084	
5.390	0.000	0.000	-0.00067	0.04084	
5.395	0.000	0.000	-0.00070	0.04084	
5.400	0.000	0.000	-0.00070	0.04084	
5.405	0.000	0.000	-0.00067	0.04084	
5.410	0.000	0.000	-0.00068	0.04084	
5.415	0.000	0.000	-0.00070	0.04084	
5.420	0.000	0.000	-0.00067	0.04084	
5.425	0.000	0.000	-0.00067	0.04084	
5.430	0.000	0.000	-0.00070	0.04084	
5.435	0.000	0.000	-0.00068	0.04085	
5.440	0.000	0.000	-0.00066	0.04085	
5.445	0.000	0.000	-0.00070	0.04085	
5.450	0.000	0.000	-0.00072	0.04085	
5.455	0.000	0.000	-0.00071	0.04085	
5.460	0.000	0.000	-0.00075	0.04085	
5.465	0.000	0.000	-0.00079	0.04085	
5.470	0.000	0.000	-0.00079	0.04086	
5.475	0.000	0.000	-0.00081	0.04086	
5.480	0.000	0.000	-0.00086	0.04086	
5.485	0.000	0.000	-0.00086	0.04086	
5.490	0.000	0.000	-0.00086	0.04085	
5.495	0.000	0.000	-0.00090	0.04085	
5.500	0.000	0.000	-0.00091	0.04085	
5.505	0.000	0.000	-0.00089	0.04085	
5.510	0.000	0.000	-0.00091	0.04085	
5.515	0.000	0.000	-0.00093	0.04085	
5.520	0.000	0.000	-0.00090	0.04085	
5.525	0.000	0.000	-0.00090	0.04085	
5.530	0.000	0.000	-0.00093	0.04085	
5.535	0.000	0.000	-0.00091	0.04085	
5.540	0.000	0.000	-0.00088	0.04085	
5.545	0.000	0.000	-0.00091	0.04085	
5.550	0.000	0.000	-0.00091	0.04085	
5.555	0.000	0.000	-0.00087	0.04085	
5.560	0.000	0.000	-0.00089	0.04085	
5.565	0.000	0.000	-0.00090	0.04086	
5.570	0.000	0.000	-0.00087	0.04086	
5.575	0.000	0.000	-0.00086	0.04086	
5.580	0.000	0.000	-0.00089	0.04086	
5.585	0.000	0.000	-0.00087	0.04086	
5.590	0.000	0.000	-0.00085	0.04087	
5.595	0.000	0.000	-0.00088	0.04087	
5.600	0.000	0.000	-0.00089	0.04087	
5.605	0.000	0.000	-0.00085	0.04087	
5.610	0.000	0.000	-0.00087	0.04087	
5.615	0.000	0.000	-0.00089	0.04087	
5.620	0.000	0.000	-0.00086	0.04087	
5.625	0.000	0.000	-0.00086	0.04087	
5.630	0.000	0.000	-0.00089	0.04087	
5.635	0.000	0.000	-0.00087	0.04087	
5.640	0.000	0.000	-0.00085	0.04087	
5.645	0.000	0.000	-0.00088	0.04086	
5.650	0.000	0.000	-0.00087	0.04086	
5.655	0.000	0.000	-0.00084	0.04086	
5.660	0.000	0.000	-0.00086	0.04086	
5.665	0.000	0.000	-0.00088	0.04086	
5.670	0.000	0.000	-0.00085	0.04086	
5.675	0.000	0.000	-0.00085	0.04086	
5.680	0.000	0.000	-0.00088	0.04086	
5.685	0.000	0.000	-0.00086	0.04086	
5.690	0.000	0.000	-0.00084	0.04086	
5.695	0.000	0.000	-0.00087	0.04086	
5.700	0.000	0.000	-0.00087	0.04086	
5.705	0.000	0.000	-0.00085	0.04086	
5.710	0	0.000	-0.00086	0.04086	
5.715	0	0.000	-0.00089	0.04085	
5.720	0.000	0.000	-0.00086	0.04085	
5.725	0.000	0.000	-0.00086	0.04085	
5.730	0.000	0.000	-0.00089	0.04085	
5.735	0.000	0.000	-0.00087	0.04085	
5.740	0.000	0.000	-0.00085	0.04085	
5.745	0.000	0.000	-0.00088	0.04085	
5.750	0.000	0.000	-0.00088	0.04085	
5.755	0.000	0.000	-0.00085	0.04085	
5.760	0.000	0.000	-0.00086	0.04085	
5.765	0.000	0.000	-0.00088	0.04085	
5.770	0.000	0.000	-0.00085	0.04085	
5.775	0.000	0.000	-0.00085	0.04085	
5.780	0.000	0.000	-0.00087	0.04085	
5.785	0.000	0.000	-0.00085	0.04085	
5.790	0.000	0.000	-0.00083	0.04085	
5.795	0	0.000	-0.00086	0.04085	
5.800	0	0.000	-0.00086	0.04085	
5.805	0	0.000	-0.00083	0.04085	
5.810	0.000	0.000	-0.00085	0.04085	
5.815	0.000	0.000	-0.00086	0.04085	
5.820	0.000	0.000	-0.00084	0.04085	
5.825	0.000	0.000	-0.00083	0.04085	
5.830	0.000	0.000	-0.00086	0.04085	
5.835	0.000	0.000	-0.00085	0.04085	
5.840	0.000	0.000	-0.00083	0.04085	
5.845	0.000	0.000	-0.00085	0.04085	
5.850	0.000	0.000	-0.00085	0.04085	
5.855	0.000	0.000	-0.00083	0.04085	
5.860	0.000	0.000	-0.00084	0.04085	
5.865	0	0.000	-0.00086	0.04085	
5.870	0	0.000	-0.00083	0.04085	
5.875	0	0.000	-0.00083	0.04085	
5.880	0	0.000	-0.00086	0.04085	
5.885	0	0.000	-0.00085	0.04085	
5.890	0.000	0.000	-0.00083	0.04085	
5.895	0.000	0.000	-0.00086	0.04085	
5.900	0.000	0.000	-0.00086	0.04086	
5.905	0.000	0.000	-0.00083	0.04086	
5.910	0.000	0.000	-0.00084	0.04086	
5.915	0	0.000	-0.00086	0.04087	
5.920	0	0.000	-0.00083	0.04087	
5.925	0	0.000	-0.00083	0.04087	
5.930	0	0.000	-0.00085	0.04087	
5.935	0	0.000	-0.00084	0.04087	
5.940	0	0.000	-0.00082	0.04087	
5.945	0	0.000	-0.00085	0.04086	
5.950	0	0.000	-0.00085	0.04086	
5.955	0	0.000	-0.00082	0.04086	
5.960	0.000	0.000	-0.00083	0.04086	
5.965	0.000	0.000	-0.00085	0.04085	
5.970	0.000	0.000	-0.00082	0.04085	
5.975	0.000	0.000	-0.00082	0.04085	
5.980	0.000	0.000	-0.00085	0.04085	
5.985	0.000	0.000	-0.00084	0.04085	
5.990	0.000	0.000	-0.00082	0.04085	
5.995	0.000	0.000	-0.00085	0.04085	
6.000	0.000	0.000	-0.00085	0.04085	
6.005	0.000	0.000	-0.00082	0.04085	
6.010	0.000	0.000	-0.00084	0.04085	
6.015	0.000	0.000	-0.00086	0.04085	
6.020	0.000	0.000	-0.00083	0.04085	
6.025	0.000	0.000	-0.00083	0.04085	
6.030	0.000	0.000	-0.00086	0.04085	
6.035	0.000	0.000	-0.00084	0.04085	
6.040	0.000	0.000	-0.00083	0.04086	
6.045	0.000	0.000	-0.00085	0.04086	
6.050	0.000	0.000	-0.00085	0.04086	
6.055	0	0.000	-0.00082	0.04086	
6.060	0	0.000	-0.00084	0.04085	
6.065	0	0.000	-0.00086	0.04085	
6.070	0	0.000	-0.00083	0.04086	
6.075	0	0.000	-0.00083	0.04086	
6.080	0	0.000	-0.00085	0.04086	
6.085	0	0.000	-0.00084	0.04086	
6.090	0	0.000	-0.00082	0.04086	
6.095	0	0.000	-0.00085	0.04085	
6.100	0	0.000	-0.00085	0.04085	
6.105	0	0.000	-0.00082	0.04085	
6.110	0	0.000	-0.00083	0.04085	
6.115	0	0.000	-0.00085	0.04085	
6.120	0	0.000	-0.00083	0.04085	
6.125	0.000	0.000	-0.00082	0.04085	
6.130	0.000	0.000	-0.00085	0.04085	
6.135	0.000	0.000	-0.00084	0.04085	
6.140	0.000	0.000	-0.00082	0.04085	
6.145	0.000	0.000	-0.00085	0.04085	
6.150	0.000	0.000	-0.00085	0.04084	
6.155	0.000	0.000	-0.00082	0.04084	
6.160	0.000	0.000	-0.00083	0.04084	
6.165	0.000	0.000	-0.00085	0.04084	
6.170	0.000	0.000	-0.00082	0.04084	
6.175	0.000	0.000	-0.00082	0.04085	
6.180	0.000	0.000	-0.00085	0.04085	
6.185	0.000	0.000	-0.00084	0.04085	
6.190	0.000	0.000	-0.00082	0.04085	
6.195	0.000	0.000	-0.00085	0.04085	
6.200	0.000	0.000	-0.00085	0.04085	
6.205	0.000	0.000	-0.00082	0.04085	
6.210	0.000	0.000	-0.00083	0.04085	
6.215	0.000	0.000	-0.00085	0.04085	
6.220	0.000	0.000	-0.00082	0.04085	
6.225	0.000	0.000	-0.00082	0.04085	
6.230	0.000	0.000	-0.00085	0.04085	
6.235	0.000	0.000	-0.00083	0.04085	
6.240	0.000	0.000	-0.00081	0.04085	
6.245	0.000	0.000	-0.00084	0.04085	
6.250	0	0.000	-0.00085	0.04085	
6.255	0	0.000	-0.00082	0.04085	
6.260	0	0.000	-0.00084	0.04085	
6.265	0	0.000	-0.00086	0.04085	
6.270	0	0.000	-0.00083	0.04085	
6.275	0	0.000	-0.00083	0.04086	
6.280	0	0.000	-0.00086	0.04086	
6.285	0	0.000	-0.00085	0.04086	
6.290	0	0.000	-0.00083	0.04085	
6.295	0	0.000	-0.00086	0.04085	
6.300	0	0.000	-0.00086	0.04085	
6.305	0	0.000	-0.00084	0.04085	
6.310	0.000	0.000	-0.00085	0.04085	
6.315	0.000	0.000	-0.00087	0.04085	
6.320	0.000	0.000	-0.00084	0.04085	
6.325	0.000	0.000	-0.00084	0.04086	
6.330	0.000	0.000	-0.00086	0.04086	
6.335	0.000	0.000	-0.00084	0.04086	
6.340	0.000	0.000	-0.00082	0.04086	
6.345	0.000	0.000	-0.00085	0.04085	
6.350	0.000	0.000	-0.00084	0.04085	
6.355	0.000	0.000	-0.00081	0.04085	
6.360	0.000	0.000	-0.00082	0.04085	
6.365	0.000	0.000	-0.00084	0.04085	
6.370	0.000	0.000	-0.00081	0.04085	
6.375	0.000	0.000	-0.00080	0.04085	
6.380	0.000	0.000	-0.00083	0.04085	
6.385	0.000	0.000	-0.00081	0.04085	
6.390	0.000	0.000	-0.00079	0.04085	
6.395	0.000	0.000	-0.00082	0.04085	
6.400	0.000	0.000	-0.00082	0.04085	
6.405	0.000	0.000	-0.00079	0.04085	
6.410	0.000	0.000	-0.00081	0.04085	
6.415	0.000	0.000	-0.00083	0.04085	
6.420	0.000	0.000	-0.00080	0.04085	
6.425	0.000	0.000	-0.00080	0.04085	
6.430	0.000	0.000	-0.00083	0.04085	
6.435	0.000	0.000	-0.00082	0.04085	
6.440	0.000	0.000	-0.00080	0.04085	
6.445	0.000	0.000	-0.00083	0.04085	
6.450	0.000	0.000	-0.00083	0.04085	
6.455	0.000	0.000	-0.00080	0.04085	
6.460	0.000	0.000	-0.00082	0.04085	
6.465	0.000	0.000	-0.00084	0.04085	
6.470	0.000	0.000	-0.00082	0.04085	
6.475	0.000	0.000	-0.00081	0.04085	
6.480	0	0.000	-0.00084	0.04085	
6.485	0	0.000	-0.00083	0.04085	
6.490	0.000	0.000	-0.00080	0.04085	
6.495	0.000	0.000	-0.00083	0.04085	
6.500	0.000	0.000	-0.00083	0.04085	
6.505	0.000	0.000	-0.00080	0.04085	
6.510	0.000	0.000	-0.00082	0.04085	
6.515	0.000	0.000	-0.00083	0.04085	
6.520	0.000	0.000	-0.00080	0.04085	
6.525	0.000	0.000	-0.00080	0.04085	
6.530	0.000	0.000	-0.00083	0.04085	
6.535	0.000	0.000	-0.00082	0.04085	
6.540	0.000	0.000	-0.00080	0.04086	
6.545	0.000	0.000	-0.00083	0.04086	
6.550	0.000	0.000	-0.00083	0.04086	
6.555	0.000	0.000	-0.00080	0.04086	
6.560	0.000	0.000	-0.00082	0.04086	
6.565	0.000	0.000	-0.00084	0.04086	
6.570	0.000	0.000	-0.00081	0.04086	
6.575	0.000	0.000	-0.00081	0.04086	
6.580	0.000	0.000	-0.00084	0.04086	
6.585	0.000	0.000	-0.00082	0.04086	
6.590	0.000	0.000	-0.00080	0.04086	
6.595	0.000	0.000	-0.00083	0.04086	
6.600	0.000	0.000	-0.00083	0.04086	
6.605	0.000	0.000	-0.00080	0.04086	
6.610	0.000	0.000	-0.00082	0.04086	
6.615	0.000	0.000	-0.00083	0.04086	
6.620	0.000	0.000	-0.00080	0.04086	
6.625	0.000	0.000	-0.00080	0.04086	
6.630	0.000	0.000	-0.00083	0.04086	
6.635	0	0.000	-0.00081	0.04086	
6.640	0	0.000	-0.00079	0.04086	
6.645	0	0.000	-0.00082	0.04086	
6.650	0.000	0.000	-0.00082	0.04086	
6.655	0.000	0.000	-0.00079	0.04086	
6.660	0.000	0.000	-0.00081	0.04087	
6.665	0.000	0.000	-0.00083	0.04087	
6.670	0.000	0.000	-0.00080	0.04087	
6.675	0.000	0.000	-0.00080	0.04087	
6.680	0.000	0.000	-0.00083	0.04087	
6.685	0.000	0.000	-0.00082	0.04088	
6.690	0.000	0.000	-0.00080	0.04088	
6.695	0.000	0.000	-0.00083	0.04087	
6.700	0.000	0.000	-0.00083	0.04087	
6.705	0.000	0.000	-0.00079	0.04087	
6.710	0.000	0.000	-0.00081	0.04087	
6.715	0.000	0.000	-0.00083	0.04087	
6.720	0.000	0.000	-0.00080	0.04087	
6.725	0.000	0.000	-0.00080	0.04087	
6.730	0.000	0.000	-0.00083	0.04087	
6.735	0.000	0.000	-0.00081	0.04087	
6.740	0.000	0.000	-0.00079	0.04086	
6.745	0.000	0.000	-0.00082	0.04086	
6.750	0.000	0.000	-0.00082	0.04086	
6.755	0.000	0.000	-0.00079	0.04086	
6.760	0.000	0.000	-0.00080	0.04086	
6.765	0	0.000	-0.00082	0.04086	
6.770	0	0.000	-0.00079	0.04086	
6.775	0	0.000	-0.00079	0.04086	
6.780	0	0.000	-0.00082	0.04085	
6.785	0	0.000	-0.00081	0.04085	
6.790	0	0.000	-0.00079	0.04085	
6.795	0	0.000	-0.00082	0.04085	
6.800	0	0.000	-0.00082	0.04085	
6.805	0	0.000	-0.00079	0.04086	
6.810	0	0.000	-0.00081	0.04086	
6.815	0	0.000	-0.00083	0.04086	
6.820	0	0.000	-0.00080	0.04086	
6.825	0	0.000	-0.00080	0.04085	
6.830	0	0.000	-0.00083	0.04085	
6.835	0	0.000	-0.00081	0.04085	
6.840	0.000	0.000	-0.00079	0.04085	
6.845	0.000	0.000	-0.00082	0.04085	
6.850	0.000	0.000	-0.00082	0.04085	
6.855	0.000	0.000	-0.00079	0.04086	
6.860	0.000	0.000	-0.00080	0.04086	
6.865	0.000	0.000	-0.00082	0.04086	
6.870	0.000	0.000	-0.00079	0.04086	
6.875	0.000	0.000	-0.00079	0.04086	
6.880	0.000	0.000	-0.00082	0.04086	
6.885	0.000	0.000	-0.00080	0.04086	
6.890	0.000	0.000	-0.00078	0.04086	
6.895	0.000	0.000	-0.00081	0.04086	
6.900	0.000	0.000	-0.00082	0.04086	
6.905	0.000	0.000	-0.00078	0.04086	
6.910	0.000	0.000	-0.00080	0.04085	
6.915	0.000	0.000	-0.00082	0.04085	
6.920	0.000	0.000	-0.00079	0.04085	
6.925	0.000	0.000	-0.00079	0.04085	
6.930	0.000	0.000	-0.00082	0.04085	
6.935	0.000	0.000	-0.00081	0.04085	
6.940	0.000	0.000	-0.00079	0.04085	
6.945	0.000	0.000	-0.00082	0.04085	
6.950	0.000	0.000	-0.00082	0.04085	
6.955	0.000	0.000	-0.00079	0.04085	
6.960	0.000	0.000	-0.00081	0.04085	
6.965	0.000	0.000	-0.00083	0.04085	
6.970	0.000	0.000	-0.00080	0.04085	
6.975	0.000	0.000	-0.00080	0.04085	
6.980	0.000	0.000	-0.00083	0.04085	
6.985	0.000	0.000	-0.00081	0.04085	
6.990	0.000	0.000	-0.00079	0.04085	
6.995	0.000	0.000	-0.00082	0.04085	
7.000	0.000	0.000	-0.00082	0.04085	
7.005	0.000	0.000	-0.00079	0.04085	
7.010	0.000	0.000	-0.00081	0.04086	
7.015	0.000	0.000	-0.00083	0.04086	
7.020	0.000	0.000	-0.00080	0.04086	
7.025	0.000	0.000	-0.00080	0.04086	
7.030	0.000	0.000	-0.00083	0.04086	
7.035	0.000	0.000	-0.00081	0.04086	
7.040	0.000	0.000	-0.00079	0.04086	
7.045	0.000	0.000	-0.00082	0.04086	
7.050	0.000	0.000	-0.00083	0.04086	
7.055	0.000	0.000	-0.00079	0.04087	
7.060	0.000	0.000	-0.00081	0.04087	
7.065	0.000	0.000	-0.00083	0.04087	
7.070	0.000	0.000	-0.00080	0.04087	
7.075	0.000	0.000	-0.00080	0.04087	
7.080	0.000	0.000	-0.00084	0.04087	
7.085	0.000	0.000	-0.00082	0.04087	
7.090	0.000	0.000	-0.00080	0.04087	
7.095	0.000	0.000	-0.00083	0.04087	
7.100	0.000	0.000	-0.00083	0.04087	
7.105	0.000	0.000	-0.00080	0.04087	
7.110	0.000	0.000	-0.00082	0.04087	
7.115	0.000	0.000	-0.00084	0.04087	
7.120	0.000	0.000	-0.00081	0.04088	
7.125	0.000	0.000	-0.00081	0.04088	
7.130	0.000	0.000	-0.00084	0.04088	
7.135	0.000	0.000	-0.00082	0.04088	
7.140	0.000	0.000	-0.00080	0.04088	
7.145	0.000	0.000	-0.00083	0.04088	
7.150	0.000	0.000	-0.00083	0.04087	
7.155	0.000	0.000	-0.00080	0.04087	
7.160	0.000	0.000	-0.00082	0.04087	
7.165	0.000	0.000	-0.00084	0.04087	
7.170	0	0.000	-0.00081	0.04087	
7.175	0	0.000	-0.00080	0.04087	
7.180	0.000	0.000	-0.00083	0.04087	
7.185	0.000	0.000	-0.00082	0.04087	
7.190	0.000	0.000	-0.00079	0.04087	
7.195	0.000	0.000	-0.00083	0.04087	
7.200	0.000	0.000	-0.00083	0.04087	
7.205	0.000	0.000	-0.00080	0.04087	
7.210	0.000	0.000	-0.00082	0.04086	
7.215	0.000	0.000	-0.00083	0.04086	
7.220	0.000	0.000	-0.00080	0.04086	
7.225	0.000	0.000	-0.00080	0.04086	
7.230	0.000	0.000	-0.00083	0.04086	
7.235	0.000	0.000	-0.00082	0.04086	
7.240	0.000	0.000	-0.00080	0.04086	
7.245	0.000	0.000	-0.00083	0.04086	
7.250	0.000	0.000	-0.00083	0.04086	
7.255	0.000	0.000	-0.00079	0.04086	
7.260	0.000	0.000	-0.00081	0.04086	
7.265	0.000	0.000	-0.00083	0.04086	
7.270	0.000	0.000	-0.00080	0.04086	
7.275	0.000	0.000	-0.00080	0.04086	
7.280	0.000	0.000	-0.00083	0.04086	
7.285	0.000	0.000	-0.00081	0.04087	
7.290	0	0.000	-0.00079	0.04087	
7.295	0	0.000	-0.00082	0.04087	
7.300	0	0.000	-0.00082	0.04087	
7.305	0	0.000	-0.00079	0.04087	
7.310	0	0.000	-0.00080	0.04086	
7.315	0	0.000	-0.00082	0.04086	
7.320	0	0.000	-0.00080	0.04086	
7.325	0	0.000	-0.00080	0.04086	
7.330	0	0.000	-0.00084	0.04086	
7.335	0.000	0.000	-0.00083	0.04085	
7.340	0.000	0.000	-0.00083	0.04085	
7.345	0.000	0.000	-0.00087	0.04085	
7.350	0.000	0.000	-0.00088	0.04085	
7.355	0.000	0.000	-0.00087	0.04084	
7.360	0.000	0.000	-0.00090	0.04084	
7.365	0.000	0.000	-0.00092	0.04084	
7.370	0.000	0.000	-0.00091	0.04084	
7.375	0.000	0.000	-0.00091	0.04084	
7.380	0.000	0.000	-0.00095	0.04084	
7.385	0.000	0.000	-0.00093	0.04083	
7.390	0.000	0.000	-0.00092	0.04083	
7.395	0.000	0.000	-0.00095	0.04083	
7.400	0.000	0.000	-0.00095	0.04083	
7.405	0.000	0.000	-0.00092	0.04083	
7.410	0.000	0.000	-0.00093	0.04083	
7.415	0.000	0.000	-0.00095	0.04083	
7.420	0.000	0.000	-0.00092	0.04083	
7.425	0.000	0.000	-0.00092	0.04084	
7.430	0.000	0.000	-0.00095	0.04084	
7.435	0.000	0.000	-0.00093	0.04084	
7.440	0.000	0.000	-0.00091	0.04084	
7.445	0.000	0.000	-0.00094	0.04084	
7.450	0.000	0.000	-0.00094	0.04084	
7.455	0.000	0.000	-0.00091	0.04084	
7.460	0.000	0.000	-0.00093	0.04084	
7.465	0.000	0.000	-0.00095	0.04084	
7.470	0.000	0.000	-0.00092	0.04085	
7.475	0.000	0.000	-0.00093	0.04085	
7.480	0.000	0.000	-0.00096	0.04085	
7.485	0.000	0.000	-0.00095	0.04085	
7.490	0.000	0.000	-0.00094	0.04085	
7.495	0.000	0.000	-0.00097	0.04085	
7.500	0.000	0.000	-0.00097	0.04086	
7.505	0.000	0.000	-0.00095	0.04086	
7.510	0.000	0.000	-0.00097	0.04086	
7.515	0.000	0.000	-0.00098	0.04086	
7.520	0.000	0.000	-0.00096	0.04086	
7.525	0.000	0.000	-0.00096	0.04086	
7.530	0.000	0.000	-0.00098	0.04086	
7.535	0.000	0.000	-0.00097	0.04086	
7.540	0.000	0.000	-0.00095	0.04086	
7.545	0.000	0.000	-0.00097	0.04086	
7.550	0.000	0.000	-0.00097	0.04086	
7.555	0.000	0.000	-0.00094	0.04086	
7.560	0.000	0.000	-0.00096	0.04086	
7.565	0.000	0.000	-0.00098	0.04086	
7.570	0.000	0.000	-0.00095	0.04085	
7.575	0.000	0	-0.00095	0.04085	
7.580	0.000	0.000	-0.00097	0.04085	
7.585	0.000	0.000	-0.00095	0.04085	
7.590	0.000	0.000	-0.00093	0.04085	
7.595	0.000	0.000	-0.00096	0.04085	
7.600	0.000	0	-0.00095	0.04085	
7.605	0.000	0.000	-0.00092	0.04084	
7.610	0.000	0.000	-0.00093	0.04084	
7.615	0.000	0.000	-0.00095	0.04084	
7.620	0.000	0.000	-0.00092	0.04084	
7.625	0.000	0.000	-0.00091	0.04084	
7.630	0.000	0.000	-0.00094	0.04083	
7.635	0.000	0.000	-0.00092	0.04083	
7.640	0.000	0.000	-0.00090	0.04083	
7.645	0.000	0.000	-0.00093	0.04083	
7.650	0.000	0.000	-0.00093	0.04083	
7.655	0.000	0.000	-0.00090	0.04083	
7.660	0.000	0.000	-0.00092	0.04083	
7.665	0.000	0.000	-0.00093	0.04083	
7.670	0.000	0.000	-0.00091	0.04083	
7.675	0.000	0.000	-0.00090	0.04083	
7.680	0.000	0.000	-0.00093	0.04084	
7.685	0.000	0.000	-0.00092	0.04084	
7.690	0.000	0.000	-0.00090	0.04084	
7.695	0.000	0.000	-0.00092	0.04084	
7.700	0.000	0.000	-0.00092	0.04084	
7.705	0.000	0.000	-0.00089	0.04084	
7.710	0.000	0.000	-0.00090	0.04084	
7.715	0.000	0.000	-0.00091	0.04084	
7.720	0.000	0.000	-0.00088	0.04084	
7.725	0.000	0	-0.00087	0.04084	
7.730	0.000	0.000	-0.00089	0.04084	
7.735	0.000	0.000	-0.00087	0.04084	
7.740	0.000	0.000	-0.00085	0.04084	
7.745	0.000	0	-0.00087	0.04084	
7.750	0.000	0.000	-0.00086	0.04084	
7.755	0.000	0.000	-0.00083	0.04084	
7.760	0.000	0.000	-0.00085	0.04084	
7.765	0.000	0.000	-0.00086	0.04084	
7.770	0.000	0.000	-0.00084	0.04085	
7.775	0.000	0.000	-0.00084	0.04085	
7.780	0.000	0.000	-0.00089	0.04085	
7.785	0.000	0.000	-0.00089	0.04085	
7.790	0.000	0.000	-0.00089	0.04085	
7.795	0.000	0.000	-0.00095	0.04085	
7.800	0.000	0.000	-0.00097	0.04085	
7.805	0.000	0.000	-0.00096	0.04085	
7.810	0.000	0.000	-0.00099	0.04085	
7.815	0.000	0.000	-0.00103	0.04086	
7.820	0.000	0.000	-0.00101	0.04086	
7.825	0.000	0.000	-0.00102	0.04086	
7.830	0.000	0	-0.00105	0.04086	
7.835	0.000	0.000	-0.00104	0.04086	
7.840	0.000	0.000	-0.00101	0.04086	
7.845	0.000	0.000	-0.00103	0.04086	
7.850	0.000	0.000	-0.00102	0.04086	
7.855	0.000	0.000	-0.00097	0.04086	
7.860	0.000	0.000	-0.00096	0.04086	
7.865	0.000	0.000	-0.00096	0.04086	
7.870	0.000	0.000	-0.00090	0.04086	
7.875	0.000	0	-0.00087	0.04086	
7.880	0.000	0.000	-0.00088	0.04086	
7.885	0.000	0.000	-0.00084	0.04086	
7.890	0.000	0.000	-0.00080	0.04087	
7.895	0.000	0.000	-0.00081	0.04087	
7.900	0.000	0.000	-0.00079	0.04087	
7.905	0.000	0.000	-0.00074	0.04087	
7.910	0.000	0.000	-0.00075	0.04087	
7.915	0.000	0.000	-0.00076	0.04087	
7.920	0.000	0.000	-0.00072	0.04087	
7.925	0.000	0.000	-0.00072	0.04087	
7.930	0.000	0.000	-0.00076	0.04087	
7.935	0.000	0.000	-0.00076	0.04087	
7.940	0.000	0.000	-0.00076	0.04087	
7.945	0.000	0.000	-0.00081	0.04087	
7.950	0.000	0.000	-0.00083	0.04087	
7.955	0.000	0.000	-0.00082	0.04087	
7.960	0.000	0.000	-0.00086	0.04087	
7.965	0.000	0.000	-0.00089	0.04087	
7.970	0.000	0.000	-0.00087	0.04087	
7.975	0.000	0.000	-0.00088	0.04087	
7.980	0.000	0.000	-0.00092	0.04086	
7.985	0.000	0.000	-0.00090	0.04086	
7.990	0.000	0.000	-0.00087	0.04086	
7.995	0.000	0.000	-0.00089	0.04086	
8.000	0.000	0.000	-0.00087	0.04085	
8.005	0.000	0.000	-0.00083	0.04085	
8.010	0.000	0.000	-0.00082	0.04085	
8.015	0.000	0.000	-0.00082	0.04085	
8.020	0.000	0.000	-0.00077	0.04085	
8.025	0	0.000	-0.00074	0.04085	
8.030	0	0.000	-0.00075	0.04085	
8.035	0	0.000	-0.00071	0.04085	
8.040	0	0.000	-0.00067	0.04085	
8.045	0	0.000	-0.00068	0.04085	
8.050	0	0.000	-0.00066	0.04085	
8.055	0	0.000	-0.00062	0.04085	
8.060	0.000	0.000	-0.00063	0.04085	
8.065	0.000	0.000	-0.00064	0.04085	
8.070	0.000	0.000	-0.00061	0.04085	
8.075	0.000	0.000	-0.00061	0.04085	
8.080	0.000	0.000	-0.00065	0.04085	
8.085	0.000	0.000	-0.00065	0.04086	
8.090	0.000	0.000	-0.00065	0.04086	
8.095	0.000	0.000	-0.00071	0.04086	
8.100	0.000	0.000	-0.00074	0.04086	
8.105	0.000	0.000	-0.00073	0.04086	
8.110	0.000	0.000	-0.00078	0.04086	
8.115	0.000	0.000	-0.00082	0.04087	
8.120	0.000	0.000	-0.00082	0.04087	
8.125	0.000	0.000	-0.00083	0.04087	
8.130	0.000	0.000	-0.00087	0.04087	
8.135	0.000	0.000	-0.00086	0.04087	
8.140	0.000	0.000	-0.00085	0.04087	
8.145	0.000	0.000	-0.00087	0.04087	
8.150	0.000	0.000	-0.00087	0.04087	
8.155	0.000	0.000	-0.00083	0.04087	
8.160	0.000	0.000	-0.00083	0.04087	
8.165	0.000	0.000	-0.00083	0.04087	
8.170	0.000	0.000	-0.00078	0.04087	
8.175	0.000	0.000	-0.00076	0.04087	
8.180	0.000	0.000	-0.00076	0.04086	
8.185	0.000	0.000	-0.00072	0.04086	
8.190	0	0.000	-0.00068	0.04086	
8.195	0	0.000	-0.00069	0.04086	
8.200	0	0.000	-0.00068	0.04086	
8.205	0.000	0.000	-0.00063	0.04086	
8.210	0.000	0.000	-0.00064	0.04086	
8.215	0.000	0.000	-0.00065	0.04086	
8.220	0.000	0.000	-0.00061	0.04086	
8.225	0.000	0.000	-0.00061	0.04086	
8.230	0.000	0.000	-0.00064	0.04086	
8.235	0.000	0.000	-0.00062	0.04087	
8.240	0.000	0.000	-0.00061	0.04087	
8.245	0.000	0.000	-0.00064	0.04087	
8.250	0.000	0.000	-0.00065	0.04087	
8.255	0.000	0.000	-0.00062	0.04087	
8.260	0.000	0.000	-0.00065	0.04088	
8.265	0.000	0.000	-0.00067	0.04088	
8.270	0.000	0.000	-0.00064	0.04088	
8.275	0.000	0.000	-0.00064	0.04088	
8.280	0.000	0.000	-0.00067	0.04088	
8.285	0.000	0.000	-0.00066	0.04088	
8.290	0.000	0.000	-0.00064	0.04088	
8.295	0.000	0.000	-0.00067	0.04087	
8.300	0.000	0.000	-0.00066	0.04087	
8.305	0.000	0.000	-0.00063	0.04088	
8.310	0.000	0.000	-0.00064	0.04088	
8.315	0.000	0.000	-0.00066	0.04088	
8.320	0	0.000	-0.00062	0.04088	
8.325	0	0.000	-0.00061	0.04087	
8.330	0	0.000	-0.00064	0.04087	
8.335	0.000	0.000	-0.00062	0.04087	
8.340	0.000	0.000	-0.00060	0.04087	
8.345	0.000	0.000	-0.00062	0.04087	
8.350	0.000	0.000	-0.00062	0.04087	
8.355	0.000	0.000	-0.00059	0.04087	
8.360	0.000	0.000	-0.00061	0.04087	
8.365	0.000	0.000	-0.00063	0.04087	
8.370	0.000	0.000	-0.00060	0.04087	
8.375	0.000	0.000	-0.00060	0.04087	
8.380	0.000	0.000	-0.00063	0.04087	
8.385	0.000	0.000	-0.00061	0.04087	
8.390	0.000	0.000	-0.00059	0.04087	
8.395	0.000	0.000	-0.00062	0.04087	
8.400	0.000	0.000	-0.00062	0.04087	
8.405	0.000	0.000	-0.00059	0.04087	
8.410	0.000	0.000	-0.00060	0.04087	
8.415	0.000	0.000	-0.00062	0.04087	
8.420	0.000	0	-0.00059	0.04087	
8.425	0.000	0.000	-0.00058	0.04088	
8.430	0.000	0.000	-0.00061	0.04088	
8.435	0.000	0.000	-0.00059	0.04088	
8.440	0.000	0.000	-0.00057	0.04088	
8.445	0.000	0.000	-0.00060	0.04089	
8.450	0.000	0	-0.00060	0.04089	
8.455	0.000	0.000	-0.00057	0.04089	
8.460	0	0.000	-0.00058	0.04089	
8.465	0	0.000	-0.00060	0.04089	
8.470	0	0.000	-0.00057	0.04089	
8.475	0.000	0.000	-0.00057	0.04089	
8.480	0.000	0.000	-0.00060	0.04089	
8.485	0.000	0.000	-0.00058	0.04089	
8.490	0.000	0.000	-0.00056	0.04089	
8.495	0.000	0.000	-0.00059	0.04089	
8.500	0	0.000	-0.00059	0.04089	
8.505	0	0.000	-0.00056	0.04090	
8.510	0	0.000	-0.00058	0.04090	
8.515	0	0.000	-0.00060	0.04090	
8.520	0	0.000	-0.00057	0.04090	
8.525	0	0.000	-0.00058	0.04090	
8.530	0	0.000	-0.00061	0.04090	
8.535	0.000	0.000	-0.00059	0.04090	
8.540	0.000	0.000	-0.00057	0.04090	
8.545	0.000	0.000	-0.00060	0.04090	
8.550	0.000	0.000	-0.00060	0.04089	
8.555	0.000	0.000	-0.00057	0.04089	
8.560	0.000	0.000	-0.00059	0.04089	
8.565	0.000	0	-0.00061	0.04089	
8.570	0.000	0.000	-0.00058	0.04089	
8.575	0.000	0.000	-0.00058	0.04089	
8.580	0.000	0.000	-0.00061	0.04089	
8.585	0.000	0	-0.00059	0.04089	
8.590	0.000	0.000	-0.00057	0.04089	
8.595	0.000	0.000	-0.00059	0.04089	
8.600	0.000	0.000	-0.00059	0.04089	
8.605	0.000	0.000	-0.00056	0.04089	
8.610	0.000	0.000	-0.00058	0.04089	
8.615	0.000	0.000	-0.00059	0.04089	
8.620	0.000	0.000	-0.00056	0.04089	
8.625	0.000	0	-0.00056	0.04089	
8.630	0.000	0.000	-0.00059	0.04089	
8.635	0.000	0.000	-0.00057	0.04089	
8.640	0.000	0.000	-0.00055	0.04089	
8.645	0.000	0.000	-0.00058	0.04088	
8.650	0.000	0.000	-0.00058	0.04088	
8.655	0.000	0.000	-0.00055	0.04088	
8.660	0.000	0.000	-0.00057	0.04088	
8.665	0.000	0.000	-0.00059	0.04088	
8.670	0.000	0.000	-0.00056	0.04089	
8.675	0.000	0.000	-0.00056	0.04089	
8.680	0.000	0.000	-0.00059	0.04089	
8.685	0	0	-0.00057	0.04089	
8.690	0	0.000	-0.00055	0.04089	
8.695	0	0.000	-0.00058	0.04089	
8.700	0.000	0.000	-0.00058	0.04089	
8.705	0.000	0	-0.00055	0.04089	
8.710	0.000	0.000	-0.00057	0.04089	
8.715	0.000	0.000	-0.00058	0.04089	
8.720	0.000	0.000	-0.00055	0.04088	
8.725	0.000	0	-0.00055	0.04088	
8.730	0.000	0.000	-0.00058	0.04088	
8.735	0.000	0.000	-0.00056	0.04088	
8.740	0	0.000	-0.00054	0.04088	
8.745	0	0.000	-0.00057	0.04088	
8.750	0	0.000	-0.00057	0.04088	
8.755	0	0.000	-0.00054	0.04088	
8.760	0	0.000	-0.00056	0.04088	
8.765	0	0.000	-0.00058	0.04088	
8.770	0	0.000	-0.00055	0.04089	
8.775	0	0.000	-0.00055	0.04089	
8.780	0	0.000	-0.00058	0.04089	
8.785	0	0.000	-0.00057	0.04089	
8.790	0.000	0.000	-0.00055	0.04089	
8.795	0.000	0.000	-0.00058	0.04089	
8.800	0.000	0.000	-0.00058	0.04089	
8.805	0.000	0.000	-0.00055	0.04089	
8.810	0.000	0.000	-0.00057	0.04089	
8.815	0.000	0.000	-0.00059	0.04089	
8.820	0.000	0.000	-0.00056	0.04089	
8.825	0.000	0.000	-0.00056	0.04089	
8.830	0.000	0.000	-0.00059	0.04089	
8.835	0.000	0.000	-0.00057	0.04089	
8.840	0.000	0.000	-0.00055	0.04089	
8.845	0.000	0.000	-0.00058	0.04089	
8.850	0.000	0.000	-0.00058	0.04089	
8.855	0.000	0.000	-0.00055	0.04089	
8.860	0.000	0.000	-0.00057	0.04089	
8.865	0.000	0.000	-0.00059	0.04089	
8.870	0.000	0.000	-0.00056	0.04089	
8.875	0.000	0.000	-0.00056	0.04089	
8.880	0.000	0.000	-0.00059	0.04089	
8.885	0.000	0.000	-0.00057	0.04089	
8.890	0.000	0.000	-0.00055	0.04089	
8.895	0.000	0.000	-0.00058	0.04089	
8.900	0.000	0.000	-0.00058	0.04089	
8.905	0.000	0.000	-0.00055	0.04089	
8.910	0.000	0.000	-0.00057	0.04089	
8.915	0.000	0.000	-0.00060	0.04089	
8.920	0.000	0.000	-0.00057	0.04089	
8.925	0.000	0.000	-0.00057	0.04089	
8.930	0.000	0.000	-0.00060	0.04089	
8.935	0.000	0.000	-0.00059	0.04089	
8.940	0.000	0.000	-0.00057	0.04090	
8.945	0.000	0.000	-0.00061	0.04090	
8.950	0.000	0	-0.00061	0.04090	
8.955	0.000	0.000	-0.00058	0.04090	
8.960	0.000	0.000	-0.00060	0.04089	
8.965	0.000	0.000	-0.00062	0.04089	
8.970	0.000	0	-0.00059	0.04089	
8.975	0.000	0.000	-0.00059	0.04089	
8.980	0.000	0.000	-0.00061	0.04088	
8.985	0.000	0.000	-0.00059	0.04088	
8.990	0.000	0.000	-0.00058	0.04088	
8.995	0.000	0.000	-0.00060	0.04088	
9.000	0.000	0.000	-0.00060	0.04088	
9.005	0.000	0.000	-0.00057	0.04088	
9.010	0.000	0.000	-0.00059	0.04088	
9.015	0.000	0.000	-0.00060	0.04088	
9.020	0.000	0.000	-0.00057	0.04088	
9.025	0.000	0.000	-0.00057	0.04088	
9.030	0.000	0.000	-0.00060	0.04088	
9.035	0.000	0.000	-0.00058	0.04088	
9.040	0.000	0.000	-0.00056	0.04088	
9.045	0.000	0.000	-0.00059	0.04087	
9.050	0.000	0	-0.00059	0.04087	
9.055	0.000	0.000	-0.00055	0.04087	
9.060	0.000	0.000	-0.00057	0.04087	
9.065	0.000	0.000	-0.00059	0.04087	
9.070	0.000	0.000	-0.00056	0.04087	
9.075	0.000	0.000	-0.00056	0.04087	
9.080	0.000	0.000	-0.00059	0.04087	
9.085	0.000	0	-0.00057	0.04087	
9.090	0.000	0.000	-0.00056	0.04087	
9.095	0.000	0.000	-0.00059	0.04087	
9.100	0.000	0	-0.00059	0.04087	
9.105	0.000	0.000	-0.00056	0.04088	
9.110	0.000	0.000	-0.00058	0.04088	
9.115	0.000	0.000	-0.00059	0.04088	
9.120	0.000	0.000	-0.00057	0.04088	
9.125	0.000	0.000	-0.00057	0.04087	
9.130	0.000	0.000	-0.00059	0.04087	
9.135	0.000	0.000	-0.00057	0.04087	
9.140	0.000	0.000	-0.00055	0.04087	
9.145	0.000	0.000	-0.00058	0.04087	
9.150	0.000	0.000	-0.00058	0.04087	
9.155	0.000	0.000	-0.00055	0.04087	
9.160	0.000	0.000	-0.00057	0.04087	
9.165	0.000	0.000	-0.00059	0.04087	
9.170	0	0.000	-0.00056	0.04087	
9.175	0	0.000	-0.00056	0.04087	
9.180	0	0	-0.00059	0.04087	
9.185	0	0.000	-0.00058	0.04087	
9.190	0.000	0	-0.00056	0.04087	
9.195	0.000	0.000	-0.00059	0.04087	
9.200	0.000	0.000	-0.00059	0.04087	
9.205	0.000	0.000	-0.00056	0.04086	
9.210	0.000	0.000	-0.00058	0.04086	
9.215	0	0	-0.00060	0.04086	
9.220	0	0.000	-0.00057	0.04086	
9.225	0	0.000	-0.00057	0.04086	
9.230	0	0.000	-0.00060	0.04086	
9.235	0	0.000	-0.00058	0.04086	
9.240	0	0.000	-0.00056	0.04086	
9.245	0.000	0.000	-0.00059	0.04086	
9.250	0.000	0.000	-0.00059	0.04087	
9.255	0.000	0.000	-0.00056	0.04087	
9.260	0	0.000	-0.00057	0.04087	
9.265	0	0.000	-0.00059	0.04087	
9.270	0	0.000	-0.00056	0.04087	
9.275	0	0.000	-0.00056	0.04087	
9.280	0	0.000	-0.00059	0.04087	
9.285	0	0.000	-0.00057	0.04087	
9.290	0	0.000	-0.00055	0.04086	
9.295	0.000	0.000	-0.00059	0.04086	
9.300	0.000	0.000	-0.00059	0.04086	
9.305	0.000	0.000	-0.00056	0.04086	
9.310	0.000	0.000	-0.00058	0.04086	
9.315	0.000	0.000	-0.00059	0.04086	
9.320	0.000	0.000	-0.00056	0.04086	
9.325	0.000	0.000	-0.00057	0.04086	
9.330	0.000	0.000	-0.00059	0.04086	
9.335	0.000	0.000	-0.00057	0.04087	
9.340	0.000	0.000	-0.00055	0.04087	
9.345	0.000	0.000	-0.00058	0.04087	
9.350	0.000	0.000	-0.00058	0.04088	
9.355	0.000	0.000	-0.00055	0.04088	
9.360	0.000	0.000	-0.00057	0.04088	
9.365	0.000	0.000	-0.00059	0.04088	
9.370	0.000	0.000	-0.00056	0.04088	
9.375	0.000	0.000	-0.00056	0.04088	
9.380	0.000	0.000	-0.00059	0.04088	
9.385	0.000	0.000	-0.00057	0.04087	
9.390	0.000	0.000	-0.00055	0.04087	
9.395	0.000	0.000	-0.00059	0.04087	
9.400	0.000	0.000	-0.00058	0.04086	
9.405	0.000	0.000	-0.00055	0.04086	
9.410	0.000	0.000	-0.00058	0.04086	
9.415	0.000	0.000	-0.00059	0.04086	
9.420	0.000	0.000	-0.00057	0.04085	
9.425	0.000	0	-0.00057	0.04085	
9.430	0.000	0.000	-0.00060	0.04085	
9.435	0.000	0.000	-0.00058	0.04085	
9.440	0.000	0.000	-0.00056	0.04085	
9.445	0.000	0.000	-0.00059	0.04086	
9.450	0.000	0.000	-0.00059	0.04086	
9.455	0.000	0.000	-0.00056	0.04086	
9.460	0.000	0.000	-0.00058	0.04086	
9.465	0.000	0.000	-0.00060	0.04086	
9.470	0.000	0.000	-0.00057	0.04086	
9.475	0.000	0.000	-0.00057	0.04086	
9.480	0.000	0	-0.00060	0.04086	
9.485	0.000	0.000	-0.00058	0.04086	
9.490	0.000	0.000	-0.00056	0.04086	
9.495	0.000	0.000	-0.00059	0.04086	
9.500	0.000	0.000	-0.00059	0.04086	
9.505	0.000	0.000	-0.00056	0.04086	
9.510	0.000	0.000	-0.00058	0.04086	
9.515	0.000	0.000	-0.00059	0.04086	
9.520	0.000	0.000	-0.00057	0.04086	
9.525	0.000	0.000	-0.00057	0.04086	
9.530	0.000	0.000	-0.00060	0.04086	
9.535	0.000	0.000	-0.00058	0.04086	
9.540	0.000	0.000	-0.00056	0.04086	
9.545	0.000	0.000	-0.00059	0.04086	
9.550	0.000	0.000	-0.00059	0.04086	
9.555	0.000	0.000	-0.00056	0.04086	
9.560	0.000	0.000	-0.00058	0.04086	
9.565	0.000	0.000	-0.00060	0.04086	
9.570	0.000	0.000	-0.00057	0.04086	
9.575	0.000	0.000	-0.00057	0.04086	
9.580	0.000	0.000	-0.00060	0.04086	
9.585	0.000	0.000	-0.00058	0.04086	
9.590	0.000	0.000	-0.00056	0.04086	
9.595	0.000	0.000	-0.00059	0.04086	
9.600	0.000	0.000	-0.00059	0.04085	
9.605	0.000	0.000	-0.00056	0.04085	
9.610	0.000	0.000	-0.00058	0.04085	
9.615	0.000	0.000	-0.00059	0.04085	
9.620	0.000	0.000	-0.00056	0.04085	
9.625	0.000	0.000	-0.00056	0.04086	
9.630	0.000	0.000	-0.00059	0.04086	
9.635	0.000	0.000	-0.00057	0.04086	
9.640	0	0.000	-0.00055	0.04086	
9.645	0	0.000	-0.00058	0.04086	
9.650	0	0.000	-0.00058	0.04087	
9.655	0	0.000	-0.00055	0.04087	
9.660	0.000	0.000	-0.00057	0.04087	
9.665	0.000	0.000	-0.00059	0.04088	
9.670	0.000	0.000	-0.00056	0.04088	
9.675	0.000	0.000	-0.00056	0.04087	
9.680	0.000	0.000	-0.00059	0.04087	
9.685	0.000	0.000	-0.00057	0.04087	
9.690	0.000	0.000	-0.00056	0.04087	
9.695	0.000	0.000	-0.00059	0.04087	
9.700	0.000	0.000	-0.00059	0.04087	
9.705	0.000	0.000	-0.00056	0.04087	
9.710	0.000	0.000	-0.00058	0.04087	
9.715	0.000	0.000	-0.00060	0.04087	
9.720	0.000	0.000	-0.00057	0.04087	
9.725	0.000	0.000	-0.00057	0.04087	
9.730	0.000	0.000	-0.00060	0.04087	
9.735	0.000	0.000	-0.00058	0.04086	
9.740	0.000	0.000	-0.00056	0.04086	
9.745	0	0.000	-0.00059	0.04086	
9.750	0	0.000	-0.00059	0.04086	
9.755	0	0.000	-0.00056	0.04086	
9.760	0	0.000	-0.00058	0.04086	
9.765	0	0.000	-0.00059	0.04086	
9.770	0	0.000	-0.00056	0.04086	
9.775	0	0.000	-0.00057	0.04086	
9.780	0	0.000	-0.00059	0.04087	
9.785	0	0.000	-0.00057	0.04087	
9.790	0	0.000	-0.00056	0.04087	
9.795	0.000	0.000	-0.00059	0.04087	
9.800	0.000	0.000	-0.00059	0.04087	
9.805	0.000	0.000	-0.00056	0.04088	
9.810	0.000	0.000	-0.00058	0.04088	
9.815	0.000	0.000	-0.00059	0.04088	
9.820	0.000	0.000	-0.00057	0.04088	
9.825	0.000	0.000	-0.00057	0.04088	
9.830	0.000	0.000	-0.00060	0.04088	
9.835	0.000	0.000	-0.00058	0.04088	
9.840	0.000	0.000	-0.00056	0.04088	
9.845	0.000	0.000	-0.00059	0.04087	
9.850	0.000	0.000	-0.00059	0.04087	
9.855	0	0.000	-0.00056	0.04087	
9.860	0	0.000	-0.00058	0.04087	
9.865	0	0.000	-0.00060	0.04087	
9.870	0.000	0.000	-0.00057	0.04087	
9.875	0.000	0.000	-0.00057	0.04087	
9.880	0.000	0.000	-0.00060	0.04087	
9.885	0.000	0.000	-0.00058	0.04087	
9.890	0.000	0.000	-0.00056	0.04087	
9.895	0.000	0.000	-0.00059	0.04087	
9.900	0.000	0.000	-0.00059	0.04087	
9.905	0.000	0.000	-0.00056	0.04087	
9.910	0.000	0.000	-0.00058	0.04088	
9.915	0.000	0.000	-0.00059	0.04088	
9.920	0.000	0.000	-0.00056	0.04088	
9.925	0.000	0.000	-0.00057	0.04088	
9.930	0.000	0.000	-0.00059	0.04089	
9.935	0.000	0.000	-0.00058	0.04089	
9.940	0.000	0.000	-0.00056	0.04089	
9.945	0.000	0.000	-0.00059	0.04089	
9.950	0.000	0.000	-0.00059	0.04088	
9.955	0.000	0.000	-0.00056	0.04088	
9.960	0.000	0.000	-0.00058	0.04088	
9.965	0	0.000	-0.00059	0.04088	
9.970	0	0.000	-0.00057	0.04088	
9.975	0.000	0.000	-0.00057	0.04088	
9.980	0.000	0.000	-0.00060	0.04088	
9.985	0	0.000	-0.00058	0.04088	
9.990	0	0.000	-0.00056	0.04088	
9.995	0	0.000	-0.00059	0.04088	
10.00	0	0.000	-0.00059	0.04088	
10.01	0	0.000	-0.00056	0.04088	
10.01	0	0.000	-0.00058	0.04088	
10.02	0	0.000	-0.00059	0.04088	
10.02	0.000	0.000	-0.00056	0.04088	
10.03	0.000	0.000	-0.00056	0.04087	
10.03	0.000	0.000	-0.00059	0.04087	
10.04	0.000	0.000	-0.00057	0.04087	
10.04	0.000	0.000	-0.00055	0.04087	
10.05	0.000	0.000	-0.00058	0.04087	
10.05	0.000	0.000	-0.00058	0.04087	
10.06	0.000	0.000	-0.00055	0.04087	
10.06	0.000	0.000	-0.00057	0.04086	
10.07	0.000	0.000	-0.00059	0.04086	
10.07	0.000	0.000	-0.00055	0.04086	
10.08	0.000	0.000	-0.00055	0.04086	
10.08	0.000	0.000	-0.00058	0.04086	
10.09	0.000	0.000	-0.00057	0.04087	
10.09	0.000	0.000	-0.00055	0.04087	
10.10	0.000	0.000	-0.00058	0.04087	
10.10	0.000	0.000	-0.00058	0.04087	
10.11	0.000	0.000	-0.00055	0.04087	
10.11	0.000	0.000	-0.00057	0.04087	
10.12	0.000	0.000	-0.00058	0.04087	
10.12	0.000	0.000	-0.00055	0.04087	
10.13	0.000	0.000	-0.00056	0.04087	
10.13	0.000	0.000	-0.00059	0.04088	
10.14	0.000	0.000	-0.00057	0.04088	
10.14	0.000	0.000	-0.00055	0.04089	
10.15	0.000	0.000	-0.00058	0.04089	
10.15	0.000	0.000	-0.00058	0.04089	
10.16	0.000	0.000	-0.00055	0.04089	
10.16	0.000	0.000	-0.00058	0.04089	
10.17	0.000	0.000	-0.00059	0.04089	
10.17	0.000	0.000	-0.00056	0.04089	
10.18	0.000	0.000	-0.00057	0.04089	
10.18	0.000	0.000	-0.00060	0.04089	
10.19	0.000	0.000	-0.00058	0.04089	
10.19	0.000	0.000	-0.00056	0.04089	
10.20	0.000	0.000	-0.00059	0.04088	
10.20	0.000	0.000	-0.00059	0.04088	
10.21	0.000	0.000	-0.00056	0.04088	
10.21	0.000	0.000	-0.00058	0.04088	
10.22	0.000	0.000	-0.00060	0.04089	
10.22	0.000	0.000	-0.00057	0.04089	
10.23	0.000	0.000	-0.00057	0.04089	
10.23	0.000	0.000	-0.00060	0.04089	
10.24	0.000	0.000	-0.00058	0.04088	
10.24	0.000	0.000	-0.00056	0.04088	
10.25	0.000	0.000	-0.00059	0.04088	
10.25	0.000	0.000	-0.00059	0.04088	
10.26	0.000	0.000	-0.00055	0.04087	
10.26	0.000	0.000	-0.00058	0.04087	
10.27	0.000	0.000	-0.00059	0.04087	
10.27	0.000	0.000	-0.00056	0.04087	
10.28	0.000	0.000	-0.00056	0.04087	
10.28	0.000	0.000	-0.00059	0.04087	
10.29	0.000	0.000	-0.00057	0.04087	
10.29	0.000	0.000	-0.00055	0.04087	
10.30	0.000	0.000	-0.00058	0.04087	
10.30	0.000	0.000	-0.00058	0.04087	
10.31	0.000	0.000	-0.00055	0.04087	
10.31	0.000	0.000	-0.00058	0.04087	
10.32	0.000	0.000	-0.00059	0.04087	
10.32	0.000	0.000	-0.00057	0.04087	
10.33	0.000	0.000	-0.00057	0.04088	
10.33	0.000	0.000	-0.00060	0.04088	
10.34	0.000	0.000	-0.00058	0.04088	
10.34	0.000	0.000	-0.00057	0.04088	
10.35	0.000	0.000	-0.00060	0.04088	
10.35	0.000	0.000	-0.00060	0.04089	
10.36	0.000	0.000	-0.00058	0.04089	
10.36	0.000	0.000	-0.00060	0.04089	
10.37	0.000	0.000	-0.00062	0.04089	
10.37	0.000	0.000	-0.00059	0.04089	
10.38	0.000	0.000	-0.00060	0.04089	
10.38	0.000	0.000	-0.00063	0.04090	
10.39	0.000	0.000	-0.00061	0.04090	
10.39	0.000	0.000	-0.00059	0.04090	
10.40	0.000	0.000	-0.00062	0.04090	
10.40	0.000	0.000	-0.00062	0.04090	
10.41	0.000	0.000	-0.00059	0.04090	
10.41	0.000	0.000	-0.00060	0.04090	
10.42	0.000	0.000	-0.00062	0.04090	
10.42	0.000	0.000	-0.00058	0.04090	
10.43	0.000	0.000	-0.00058	0.04089	
10.43	0.000	0.000	-0.00061	0.04089	
10.44	0.000	0.000	-0.00059	0.04088	
10.44	0.000	0.000	-0.00057	0.04088	
10.45	0.000	0.000	-0.00060	0.04087	
10.45	0.000	0.000	-0.00059	0.04087	
10.46	0.000	0.000	-0.00056	0.04087	
10.46	0.000	0.000	-0.00058	0.04087	
10.47	0.000	0.000	-0.00060	0.04087	
10.47	0.000	0.000	-0.00057	0.04087	
10.48	0.000	0.000	-0.00057	0.04087	
10.48	0.000	0.000	-0.00060	0.04087	
10.49	0.000	0.000	-0.00058	0.04087	
10.49	0.000	0.000	-0.00056	0.04087	
10.50	0.000	0.000	-0.00059	0.04087	
10.50	0.000	0.000	-0.00059	0.04087	
10.51	0.000	0.000	-0.00056	0.04087	